File: Test_Data_Files/20250509_IF0011_IIA42_PBSair_E02_D_CV5000_PEDOT.DTA
EXPLAIN
TAG	CV
TITLE	LABEL	CV5000	Test Identifier
DATE	LABEL	5/9/2025	Date
TIME	LABEL	14:36:49	Time
NOTES	NOTES	1	Notes...

PSTAT	PSTAT	REF600P-43058	Potentiostat
VINIT	POTEN	0.00000E+000	T	Initial E (V)
VLIMIT1	POTEN	-9.00000E-001	F	Scan Limit 1 (V)
VLIMIT2	POTEN	6.00000E-001	F	Scan Limit 2 (V)
VFINAL	POTEN	0.00000E+000	T	Final E (V)
SCANRATE	QUANT	4.99999E+003	Scan Rate (mV/s)
STEPSIZE	QUANT	1.00000E+001	Step Size (mV)
CYCLES	IQUANT	3	Cycles (#)
IMODE	SELECTOR	1	I/E Range Mode
IRANGE	QUANT	1.00000E-002	Max Current (mA)
AREA	QUANT	1.00000E+000	Sample Area (cm^2)
EQDELAY	QUANT	5.00000E+000	Equil. Time (s)
IRCOMP	SELECTOR	0	IRComp
PFCOR	QUANT	5.00000E+001	PF Corr. (ohm)
SAMPLINGMODE	SELECTOR	2	Sampling Mode
EOC	QUANT	0.1869809	Open Circuit (V)
ELECTRODETYPE	SELECTOR	0	Electrode Type
STRIPPING	TOGGLE	F	Used for Stripping
SEQUENCER	TOGGLE	TRUE	Run as Sequence
PSTATMODEL	IQUANT	7	Pstat Model
PSTATSECTION	LABEL	REF600P-43058	Pstat Section
PSTATSERIALNO	LABEL	43058	Pstat Serial Number
CTRLMODE	IQUANT	1	Control Mode
ELECTROMETER	IQUANT	0	RE=0 or CS=1
IESTAB	IQUANT	2	I/E Stability
CASPEED	IQUANT	4	Control Amp Speed
CONVENTION	IQUANT	1	Current Convention
ICHRANGE	IQUANT	2	Ich Range
ICHRANGEMODE	TOGGLE	F	Ich Auto Range
ICHOFFSETENABLE	TOGGLE	F	Ich Offset Enable
ICHOFFSET	QUANT	0	Ich Offset (V)
ICHFILTER	IQUANT	2	Ich Filter
VCHRANGE	IQUANT	2	Vch Range
VCHRANGEMODE	TOGGLE	F	Vch Auto Range
VCHOFFSETENABLE	TOGGLE	F	Vch Offset Enable
VCHOFFSET	QUANT	0	Vch Offset (V)
VCHFILTER	IQUANT	2	Vch Filter
ACHRANGE	IQUANT	2	Ach Range
ACHOFFSETENABLE	TOGGLE	F	Ach Offset Enable
ACHOFFSET	QUANT	0	Ach Offset (V)
ACHFILTER	IQUANT	1	Ach Filter
IERANGELOWERLIMIT	IQUANT	1	I/E Range Lower Limit
IERANGEMODE	TOGGLE	F	I/E AutoRange
IERANGE	IQUANT	7	I/E Range
POSFEEDENABLE	TOGGLE	F	Positive Feedback IR Comp
POSFEEDRESISTANCE	QUANT	0	Positive Feedback Resistance (ohm)
ACHSELECT	IQUANT	4	Ach Select
SENSECABLEID	IQUANT	7	Sense Cable ID
PWRCABLEID	IQUANT	7	Power Cable ID
DCCALDATE	LABEL	5/8/2025	DC Calibration Date
ACCALDATE	LABEL	5/8/2025	AC Calibration Date
THERMOSELECT	IQUANT	1	Thermo Select
FRAMEWORKVERSION	LABEL	7.10.4	Framework Version
INSTRUMENTVERSION	LABEL	5.01	Instrument Version
COMMVERSION	LABEL	5.10	Communications Version
CPUPLDVERSION	LABEL	6.00	CPU PLD Version
CTRLPLDVERSION	LABEL	3.21	CTRL PLD Version
PSTATPLDVERSION	LABEL	0.00	PSTAT PLD Version
CURVE1	TABLE
	Pt	T	Vf	Im	Vu	Sig	Ach	IERange	Over	Temp
	#	s	V vs. Ref.	A	V	V	V	#	bits	deg C
	0	0.002	1.87032E-001	9.71724E-009	0.00000E+000	1.87000E-001	1.37988E-003	7	...........	-327.66
	3	0.008	1.57823E-001	-1.23080E-006	0.00000E+000	1.57000E-001	1.45057E-003	7	...........	-327.66
	6	0.014	1.27880E-001	-1.74930E-006	0.00000E+000	1.27000E-001	1.40919E-003	7	...........	-327.66
	9	0.02	9.78419E-002	-2.14609E-006	0.00000E+000	9.70000E-002	1.37643E-003	7	...........	-327.66
	12	0.026	6.78351E-002	-2.48205E-006	0.00000E+000	6.70000E-002	1.42298E-003	7	...........	-327.66
	15	0.032	3.78471E-002	-2.77720E-006	0.00000E+000	3.70000E-002	1.41953E-003	7	...........	-327.66
	18	0.038	7.89713E-003	-3.04280E-006	0.00000E+000	6.99998E-003	1.45057E-003	7	...........	-327.66
	21	0.044	-2.21977E-002	-3.28411E-006	0.00000E+000	-2.30000E-002	1.36436E-003	7	...........	-327.66
	24	0.05	-5.21451E-002	-3.50566E-006	0.00000E+000	-5.30000E-002	1.37815E-003	7	...........	-327.66
	27	0.056	-8.21529E-002	-3.71193E-006	0.00000E+000	-8.30000E-002	1.36609E-003	7	...........	-327.66
	30	0.062	-1.12106E-001	-3.90349E-006	0.00000E+000	-1.13000E-001	1.38678E-003	7	...........	-327.66
	33	0.068	-1.42149E-001	-4.08470E-006	0.00000E+000	-1.43000E-001	1.43678E-003	7	...........	-327.66
	36	0.074	-1.72151E-001	-4.25592E-006	0.00000E+000	-1.73000E-001	1.40402E-003	7	...........	-327.66
	39	0.08	-2.02209E-001	-4.41882E-006	0.00000E+000	-2.03000E-001	1.35057E-003	7	...........	-327.66
	42	0.086	-2.32102E-001	-4.57401E-006	0.00000E+000	-2.33000E-001	1.39884E-003	7	...........	-327.66
	45	0.092	-2.62116E-001	-4.71994E-006	0.00000E+000	-2.63000E-001	1.39884E-003	7	...........	-327.66
	48	0.098	-2.92091E-001	-4.85377E-006	0.00000E+000	-2.93000E-001	1.43505E-003	7	...........	-327.66
	51	0.104	-3.22122E-001	-4.97686E-006	0.00000E+000	-3.23000E-001	1.41781E-003	7	...........	-327.66
	54	0.11	-3.52114E-001	-5.08575E-006	0.00000E+000	-3.53000E-001	1.38850E-003	7	...........	-327.66
	57	0.116	-3.82148E-001	-5.17777E-006	0.00000E+000	-3.83000E-001	1.40747E-003	7	...........	-327.66
	60	0.122	-4.12100E-001	-5.25212E-006	0.00000E+000	-4.13000E-001	1.37471E-003	7	...........	-327.66
	63	0.128	-4.42135E-001	-5.30971E-006	0.00000E+000	-4.43000E-001	1.36609E-003	7	...........	-327.66
	66	0.134	-4.72049E-001	-5.34912E-006	0.00000E+000	-4.73000E-001	1.39367E-003	7	...........	-327.66
	69	0.14	-5.02098E-001	-5.37471E-006	0.00000E+000	-5.03000E-001	1.38333E-003	7	...........	-327.66
	72	0.146	-5.32107E-001	-5.38650E-006	0.00000E+000	-5.33000E-001	1.42815E-003	7	...........	-327.66
	75	0.152	-5.62148E-001	-5.38121E-006	0.00000E+000	-5.63000E-001	1.40919E-003	7	...........	-327.66
	78	0.158	-5.92058E-001	-5.35298E-006	0.00000E+000	-5.93000E-001	1.40574E-003	7	...........	-327.66
	81	0.164	-6.22061E-001	-5.27857E-006	0.00000E+000	-6.23000E-001	1.40057E-003	7	...........	-327.66
	84	0.17	-6.52047E-001	-5.12057E-006	0.00000E+000	-6.53000E-001	1.41436E-003	7	...........	-327.66
	87	0.176	-6.82033E-001	-4.83384E-006	0.00000E+000	-6.83000E-001	1.38678E-003	7	...........	-327.66
	90	0.182	-7.12043E-001	-4.38083E-006	0.00000E+000	-7.13000E-001	1.40229E-003	7	...........	-327.66
	93	0.188	-7.42078E-001	-3.76307E-006	0.00000E+000	-7.43000E-001	1.46264E-003	7	...........	-327.66
	96	0.194	-7.72092E-001	-3.05091E-006	0.00000E+000	-7.73000E-001	1.41781E-003	7	...........	-327.66
	99	0.2	-8.02077E-001	-2.36114E-006	0.00000E+000	-8.03000E-001	1.43505E-003	7	...........	-327.66
	102	0.206	-8.32054E-001	-1.80765E-006	0.00000E+000	-8.33000E-001	1.44540E-003	7	...........	-327.66
	105	0.212	-8.62107E-001	-1.42329E-006	0.00000E+000	-8.63000E-001	1.41953E-003	7	...........	-327.66
	108	0.218	-8.92111E-001	-1.17477E-006	0.00000E+000	-8.93000E-001	1.39022E-003	7	...........	-327.66
	111	0.224	-8.83652E-001	-8.96665E-007	0.00000E+000	-8.83000E-001	1.42988E-003	7	...........	-327.66
	114	0.23	-8.53671E-001	-7.15330E-007	0.00000E+000	-8.53000E-001	1.46436E-003	7	...........	-327.66
	117	0.236	-8.23656E-001	-5.82708E-007	0.00000E+000	-8.23000E-001	1.40747E-003	7	...........	-327.66
	120	0.242	-7.93642E-001	-4.58519E-007	0.00000E+000	-7.93000E-001	1.45574E-003	7	...........	-327.66
	123	0.248	-7.63645E-001	-3.22173E-007	0.00000E+000	-7.63000E-001	1.44884E-003	7	...........	-327.66
	126	0.254	-7.33695E-001	-1.48046E-007	0.00000E+000	-7.33000E-001	1.41436E-003	7	...........	-327.66
	129	0.26	-7.03690E-001	8.48999E-008	0.00000E+000	-7.03000E-001	1.42298E-003	7	...........	-327.66
	132	0.266	-6.73651E-001	4.07927E-007	0.00000E+000	-6.73000E-001	1.43678E-003	7	...........	-327.66
	135	0.272	-6.43693E-001	8.54108E-007	0.00000E+000	-6.43000E-001	1.40747E-003	7	...........	-327.66
	138	0.278	-6.13726E-001	1.45869E-006	0.00000E+000	-6.13000E-001	1.42988E-003	7	...........	-327.66
	141	0.284	-5.83756E-001	2.23659E-006	0.00000E+000	-5.83000E-001	1.43850E-003	7	...........	-327.66
	144	0.29	-5.53711E-001	3.17115E-006	0.00000E+000	-5.53000E-001	1.40919E-003	7	...........	-327.66
	147	0.296	-5.23750E-001	4.15745E-006	0.00000E+000	-5.23000E-001	1.37126E-003	7	...........	-327.66
	150	0.302	-4.93737E-001	4.95146E-006	0.00000E+000	-4.93000E-001	1.42471E-003	7	...........	-327.66
	153	0.308	-4.63753E-001	5.31418E-006	0.00000E+000	-4.63000E-001	1.36781E-003	7	...........	-327.66
	156	0.314	-4.33709E-001	5.27457E-006	0.00000E+000	-4.33000E-001	1.44884E-003	7	...........	-327.66
	159	0.32	-4.03766E-001	5.06737E-006	0.00000E+000	-4.03000E-001	1.40747E-003	7	...........	-327.66
	162	0.326	-3.73754E-001	4.86440E-006	0.00000E+000	-3.73000E-001	1.35402E-003	7	...........	-327.66
	165	0.332	-3.43794E-001	4.71936E-006	0.00000E+000	-3.43000E-001	1.40574E-003	7	...........	-327.66
	168	0.338	-3.13715E-001	4.62676E-006	0.00000E+000	-3.13000E-001	1.45402E-003	7	...........	-327.66
	171	0.344	-2.83767E-001	4.57332E-006	0.00000E+000	-2.83000E-001	1.42471E-003	7	...........	-327.66
	174	0.35	-2.53781E-001	4.54280E-006	0.00000E+000	-2.53000E-001	1.47126E-003	7	...........	-327.66
	177	0.356	-2.23774E-001	4.51680E-006	0.00000E+000	-2.23000E-001	1.41953E-003	7	...........	-327.66
	180	0.362	-1.93754E-001	4.49167E-006	0.00000E+000	-1.93000E-001	1.44540E-003	7	...........	-327.66
	183	0.368	-1.63780E-001	4.47107E-006	0.00000E+000	-1.63000E-001	1.35919E-003	7	...........	-327.66
	186	0.374	-1.33802E-001	4.45239E-006	0.00000E+000	-1.33000E-001	1.44540E-003	7	...........	-327.66
	189	0.38	-1.03818E-001	4.43729E-006	0.00000E+000	-1.03000E-001	1.42471E-003	7	...........	-327.66
	192	0.386	-7.37486E-002	4.42320E-006	0.00000E+000	-7.30000E-002	1.39540E-003	7	...........	-327.66
	195	0.392	-4.38123E-002	4.40823E-006	0.00000E+000	-4.30000E-002	1.43333E-003	7	...........	-327.66
	198	0.398	-1.37667E-002	4.39066E-006	0.00000E+000	-1.30000E-002	1.45402E-003	7	...........	-327.66
	201	0.404	1.62420E-002	4.36931E-006	0.00000E+000	1.70000E-002	1.36781E-003	7	...........	-327.66
	204	0.41	4.62859E-002	4.34320E-006	0.00000E+000	4.70000E-002	1.39540E-003	7	...........	-327.66
	207	0.416	7.62282E-002	4.31239E-006	0.00000E+000	7.70000E-002	1.41091E-003	7	...........	-327.66
	210	0.422	1.06202E-001	4.27726E-006	0.00000E+000	1.07000E-001	1.39884E-003	7	...........	-327.66
	213	0.428	1.36201E-001	4.23969E-006	0.00000E+000	1.37000E-001	1.40574E-003	7	...........	-327.66
	216	0.434	1.66295E-001	4.20144E-006	0.00000E+000	1.67000E-001	1.39712E-003	7	...........	-327.66
	219	0.44	1.96242E-001	4.15994E-006	0.00000E+000	1.97000E-001	1.42988E-003	7	...........	-327.66
	222	0.446	2.26194E-001	4.11986E-006	0.00000E+000	2.27000E-001	1.38160E-003	7	...........	-327.66
	225	0.452	2.56151E-001	4.08041E-006	0.00000E+000	2.57000E-001	1.42126E-003	7	...........	-327.66
	228	0.458	2.86194E-001	4.04330E-006	0.00000E+000	2.87000E-001	1.44195E-003	7	...........	-327.66
	231	0.464	3.16171E-001	4.01226E-006	0.00000E+000	3.17000E-001	1.42815E-003	7	...........	-327.66
	234	0.47	3.46268E-001	3.98540E-006	0.00000E+000	3.47000E-001	1.37471E-003	7	...........	-327.66
	237	0.476	3.76167E-001	3.96598E-006	0.00000E+000	3.77000E-001	1.46264E-003	7	...........	-327.66
	240	0.482	4.06264E-001	3.95636E-006	0.00000E+000	4.07000E-001	1.44540E-003	7	...........	-327.66
	243	0.488	4.36140E-001	3.95519E-006	0.00000E+000	4.37000E-001	1.40747E-003	7	...........	-327.66
	246	0.494	4.66115E-001	3.96448E-006	0.00000E+000	4.67000E-001	1.40574E-003	7	...........	-327.66
	249	0.5	4.96166E-001	3.98543E-006	0.00000E+000	4.97000E-001	1.38505E-003	7	...........	-327.66
	252	0.506	5.26245E-001	4.01442E-006	0.00000E+000	5.27000E-001	1.35574E-003	7	...........	-327.66
	255	0.512	5.56182E-001	4.05323E-006	0.00000E+000	5.57000E-001	1.41953E-003	7	...........	-327.66
	258	0.518	5.86177E-001	4.10615E-006	0.00000E+000	5.87000E-001	1.39884E-003	7	...........	-327.66
	259	0.52	5.96144E-001	4.12645E-006	0.00000E+000	5.97000E-001	1.44367E-003	7	...........	-327.66
CURVE2	TABLE
	Pt	T	Vf	Im	Vu	Sig	Ach	IERange	Over	Temp
	#	s	V vs. Ref.	A	V	V	V	#	bits	deg C
	260	0.522	5.90497E-001	3.00230E-006	0.00000E+000	5.90000E-001	1.44540E-003	7	...........	-327.66
	263	0.528	5.60746E-001	1.26156E-006	0.00000E+000	5.60000E-001	1.43678E-003	7	...........	-327.66
	266	0.534	5.30788E-001	3.13276E-007	0.00000E+000	5.30000E-001	1.37126E-003	7	...........	-327.66
	269	0.54	5.00810E-001	-3.80508E-007	0.00000E+000	5.00000E-001	1.36091E-003	7	...........	-327.66
	272	0.546	4.70781E-001	-9.25462E-007	0.00000E+000	4.70000E-001	1.44022E-003	7	...........	-327.66
	275	0.552	4.40757E-001	-1.37185E-006	0.00000E+000	4.40000E-001	1.43333E-003	7	...........	-327.66
	278	0.558	4.10764E-001	-1.74585E-006	0.00000E+000	4.10000E-001	1.43160E-003	7	...........	-327.66
	281	0.564	3.80793E-001	-2.06662E-006	0.00000E+000	3.80000E-001	1.41609E-003	7	...........	-327.66
	284	0.57	3.50806E-001	-2.34631E-006	0.00000E+000	3.50000E-001	1.43160E-003	7	...........	-327.66
	287	0.576	3.20797E-001	-2.59497E-006	0.00000E+000	3.20000E-001	1.41953E-003	7	...........	-327.66
	290	0.582	2.90805E-001	-2.81600E-006	0.00000E+000	2.90000E-001	1.37471E-003	7	...........	-327.66
	293	0.588	2.60800E-001	-3.01995E-006	0.00000E+000	2.60000E-001	1.47988E-003	7	...........	-327.66
	296	0.594	2.30801E-001	-3.20536E-006	0.00000E+000	2.30000E-001	1.43850E-003	7	...........	-327.66
	299	0.6	2.00829E-001	-3.37688E-006	0.00000E+000	2.00000E-001	1.42471E-003	7	...........	-327.66
	302	0.606	1.70900E-001	-3.53677E-006	0.00000E+000	1.70000E-001	1.44022E-003	7	...........	-327.66
	305	0.612	1.40899E-001	-3.68673E-006	0.00000E+000	1.40000E-001	1.38505E-003	7	...........	-327.66
	308	0.618	1.10834E-001	-3.82765E-006	0.00000E+000	1.10000E-001	1.42815E-003	7	...........	-327.66
	311	0.624	8.07954E-002	-3.95903E-006	0.00000E+000	8.00000E-002	1.40402E-003	7	...........	-327.66
	314	0.63	5.08532E-002	-4.08101E-006	0.00000E+000	5.00000E-002	1.40057E-003	7	...........	-327.66
	317	0.636	2.08221E-002	-4.19479E-006	0.00000E+000	2.00000E-002	1.48505E-003	7	...........	-327.66
	320	0.642	-9.14683E-003	-4.30084E-006	0.00000E+000	-1.00000E-002	1.37815E-003	7	...........	-327.66
	323	0.648	-3.91391E-002	-4.39807E-006	0.00000E+000	-4.00000E-002	1.45574E-003	7	...........	-327.66
	326	0.654	-6.91356E-002	-4.48860E-006	0.00000E+000	-7.00000E-002	1.39022E-003	7	...........	-327.66
	329	0.66	-9.91520E-002	-4.57123E-006	0.00000E+000	-1.00000E-001	1.41091E-003	7	...........	-327.66
	332	0.666	-1.29192E-001	-4.64468E-006	0.00000E+000	-1.30000E-001	1.40574E-003	7	...........	-327.66
	335	0.672	-1.59167E-001	-4.71043E-006	0.00000E+000	-1.60000E-001	1.41436E-003	7	...........	-327.66
	338	0.678	-1.89110E-001	-4.76840E-006	0.00000E+000	-1.90000E-001	1.40057E-003	7	...........	-327.66
	341	0.684	-2.19095E-001	-4.81844E-006	0.00000E+000	-2.20000E-001	1.45402E-003	7	...........	-327.66
	344	0.69	-2.49140E-001	-4.85919E-006	0.00000E+000	-2.50000E-001	1.39540E-003	7	...........	-327.66
	347	0.696	-2.79149E-001	-4.88950E-006	0.00000E+000	-2.80000E-001	1.44367E-003	7	...........	-327.66
	350	0.702	-3.09153E-001	-4.90975E-006	0.00000E+000	-3.10000E-001	1.43678E-003	7	...........	-327.66
	353	0.708	-3.39165E-001	-4.92166E-006	0.00000E+000	-3.40000E-001	1.42298E-003	7	...........	-327.66
	356	0.714	-3.69017E-001	-4.92233E-006	0.00000E+000	-3.70000E-001	1.39712E-003	7	...........	-327.66
	359	0.72	-3.99125E-001	-4.91794E-006	0.00000E+000	-4.00000E-001	1.43160E-003	7	...........	-327.66
	362	0.726	-4.29087E-001	-4.90883E-006	0.00000E+000	-4.30000E-001	1.45229E-003	7	...........	-327.66
	365	0.732	-4.59139E-001	-4.89566E-006	0.00000E+000	-4.60000E-001	1.36609E-003	7	...........	-327.66
	368	0.738	-4.89123E-001	-4.88078E-006	0.00000E+000	-4.90000E-001	1.39022E-003	7	...........	-327.66
	371	0.744	-5.19154E-001	-4.86660E-006	0.00000E+000	-5.20000E-001	1.43678E-003	7	...........	-327.66
	374	0.75	-5.49065E-001	-4.84372E-006	0.00000E+000	-5.50000E-001	1.43333E-003	7	...........	-327.66
	377	0.756	-5.79073E-001	-4.80334E-006	0.00000E+000	-5.80000E-001	1.36091E-003	7	...........	-327.66
	380	0.762	-6.09127E-001	-4.72746E-006	0.00000E+000	-6.10000E-001	1.38333E-003	7	...........	-327.66
	383	0.768	-6.39130E-001	-4.58110E-006	0.00000E+000	-6.40000E-001	1.42126E-003	7	...........	-327.66
	386	0.774	-6.69074E-001	-4.33167E-006	0.00000E+000	-6.70000E-001	1.40057E-003	7	...........	-327.66
	389	0.78	-6.99086E-001	-3.94879E-006	0.00000E+000	-7.00000E-001	1.41953E-003	7	...........	-327.66
	392	0.786	-7.29051E-001	-3.44341E-006	0.00000E+000	-7.30000E-001	1.39540E-003	7	...........	-327.66
	395	0.792	-7.59101E-001	-2.86693E-006	0.00000E+000	-7.60000E-001	1.43505E-003	7	...........	-327.66
	398	0.798	-7.89092E-001	-2.29527E-006	0.00000E+000	-7.90000E-001	1.35747E-003	7	...........	-327.66
	401	0.804	-8.19124E-001	-1.81255E-006	0.00000E+000	-8.20000E-001	1.43333E-003	7	...........	-327.66
	404	0.81	-8.49124E-001	-1.45688E-006	0.00000E+000	-8.50000E-001	1.39712E-003	7	...........	-327.66
	407	0.816	-8.79139E-001	-1.20569E-006	0.00000E+000	-8.80000E-001	1.39884E-003	7	...........	-327.66
	410	0.822	-8.90683E-001	-9.60915E-007	0.00000E+000	-8.90000E-001	1.41953E-003	7	...........	-327.66
	413	0.828	-8.60713E-001	-7.51714E-007	0.00000E+000	-8.60000E-001	1.42298E-003	7	...........	-327.66
	416	0.834	-8.30559E-001	-6.08626E-007	0.00000E+000	-8.30000E-001	1.42988E-003	7	...........	-327.66
	419	0.84	-8.00682E-001	-4.81884E-007	0.00000E+000	-8.00000E-001	1.43850E-003	7	...........	-327.66
	422	0.846	-7.70590E-001	-3.43848E-007	0.00000E+000	-7.70000E-001	1.41264E-003	7	...........	-327.66
	425	0.852	-7.40716E-001	-1.74239E-007	0.00000E+000	-7.40000E-001	1.43505E-003	7	...........	-327.66
	428	0.858	-7.10657E-001	5.12574E-008	0.00000E+000	-7.10000E-001	1.42815E-003	7	...........	-327.66
	431	0.864	-6.80687E-001	3.63127E-007	0.00000E+000	-6.80000E-001	1.42298E-003	7	...........	-327.66
	434	0.87	-6.50671E-001	7.94997E-007	0.00000E+000	-6.50000E-001	1.41609E-003	7	...........	-327.66
	437	0.876	-6.20708E-001	1.37851E-006	0.00000E+000	-6.20000E-001	1.47298E-003	7	...........	-327.66
[...]
	728	1.458	-7.10666E-001	6.49662E-008	0.00000E+000	-7.10000E-001	1.41436E-003	7	...........	-327.66
	731	1.464	-6.80668E-001	3.81992E-007	0.00000E+000	-6.80000E-001	1.39195E-003	7	...........	-327.66
	734	1.47	-6.50687E-001	8.19690E-007	0.00000E+000	-6.50000E-001	1.43850E-003	7	...........	-327.66
	737	1.476	-6.20764E-001	1.41232E-006	0.00000E+000	-6.20000E-001	1.39884E-003	7	...........	-327.66
	740	1.482	-5.90720E-001	2.18200E-006	0.00000E+000	-5.90000E-001	1.38333E-003	7	...........	-327.66
	743	1.488	-5.60767E-001	3.10838E-006	0.00000E+000	-5.60000E-001	1.46953E-003	7	...........	-327.66
	746	1.494	-5.30762E-001	4.09412E-006	0.00000E+000	-5.30000E-001	1.41436E-003	7	...........	-327.66
	749	1.5	-5.00723E-001	4.90230E-006	0.00000E+000	-5.00000E-001	1.43505E-003	7	...........	-327.66
	752	1.506	-4.70684E-001	5.26692E-006	0.00000E+000	-4.70000E-001	1.35919E-003	7	...........	-327.66
	755	1.512	-4.40773E-001	5.21068E-006	0.00000E+000	-4.40000E-001	1.40057E-003	7	...........	-327.66
	758	1.518	-4.10781E-001	4.97955E-006	0.00000E+000	-4.10000E-001	1.39195E-003	7	...........	-327.66
	761	1.524	-3.80799E-001	4.75719E-006	0.00000E+000	-3.80000E-001	1.42643E-003	7	...........	-327.66
	764	1.53	-3.50760E-001	4.60541E-006	0.00000E+000	-3.50000E-001	1.40574E-003	7	...........	-327.66
	767	1.536	-3.20782E-001	4.51761E-006	0.00000E+000	-3.20000E-001	1.35747E-003	7	...........	-327.66
	770	1.542	-2.90765E-001	4.46932E-006	0.00000E+000	-2.90000E-001	1.44540E-003	7	...........	-327.66
	773	1.548	-2.60761E-001	4.43456E-006	0.00000E+000	-2.60000E-001	1.39712E-003	7	...........	-327.66
	776	1.554	-2.30760E-001	4.40920E-006	0.00000E+000	-2.30000E-001	1.42988E-003	7	...........	-327.66
	779	1.56	-2.00824E-001	4.38871E-006	0.00000E+000	-2.00000E-001	1.40574E-003	7	...........	-327.66
	782	1.566	-1.70796E-001	4.37393E-006	0.00000E+000	-1.70000E-001	1.38333E-003	7	...........	-327.66
	785	1.572	-1.40760E-001	4.36203E-006	0.00000E+000	-1.40000E-001	1.36953E-003	7	...........	-327.66
	788	1.578	-1.10803E-001	4.35321E-006	0.00000E+000	-1.10000E-001	1.39884E-003	7	...........	-327.66
	791	1.584	-8.08037E-002	4.34521E-006	0.00000E+000	-8.00000E-002	1.38678E-003	7	...........	-327.66
	794	1.59	-5.08330E-002	4.33703E-006	0.00000E+000	-5.00000E-002	1.42471E-003	7	...........	-327.66
	797	1.596	-2.07908E-002	4.32558E-006	0.00000E+000	-2.00000E-002	1.44022E-003	7	...........	-327.66
	800	1.602	9.22213E-003	4.31223E-006	0.00000E+000	9.99999E-003	1.39022E-003	7	...........	-327.66
	803	1.608	3.91928E-002	4.29382E-006	0.00000E+000	4.00000E-002	1.43333E-003	7	...........	-327.66
	806	1.614	6.92239E-002	4.26971E-006	0.00000E+000	7.00000E-002	1.41264E-003	7	...........	-327.66
	809	1.62	9.92195E-002	4.24226E-006	0.00000E+000	1.00000E-001	1.41953E-003	7	...........	-327.66
	812	1.626	1.29227E-001	4.21220E-006	0.00000E+000	1.30000E-001	1.46609E-003	7	...........	-327.66
	815	1.632	1.59201E-001	4.17975E-006	0.00000E+000	1.60000E-001	1.37815E-003	7	...........	-327.66
	818	1.638	1.89220E-001	4.14550E-006	0.00000E+000	1.90000E-001	1.39367E-003	7	...........	-327.66
	821	1.644	2.19207E-001	4.11304E-006	0.00000E+000	2.20000E-001	1.39884E-003	7	...........	-327.66
	824	1.65	2.49257E-001	4.08039E-006	0.00000E+000	2.50000E-001	1.42643E-003	7	...........	-327.66
	827	1.656	2.79188E-001	4.04973E-006	0.00000E+000	2.80000E-001	1.39712E-003	7	...........	-327.66
	830	1.662	3.09179E-001	4.02228E-006	0.00000E+000	3.10000E-001	1.40402E-003	7	...........	-327.66
	833	1.668	3.39184E-001	4.00088E-006	0.00000E+000	3.40000E-001	1.43333E-003	7	...........	-327.66
	836	1.674	3.69195E-001	3.98607E-006	0.00000E+000	3.70000E-001	1.36781E-003	7	...........	-327.66
	839	1.68	3.99203E-001	3.97871E-006	0.00000E+000	4.00000E-001	1.42471E-003	7	...........	-327.66
	842	1.686	4.29186E-001	3.98119E-006	0.00000E+000	4.30000E-001	1.42815E-003	7	...........	-327.66
	845	1.692	4.59179E-001	3.99235E-006	0.00000E+000	4.60000E-001	1.37643E-003	7	...........	-327.66
	848	1.698	4.89170E-001	4.01659E-006	0.00000E+000	4.90000E-001	1.40574E-003	7	...........	-327.66
	851	1.704	5.19163E-001	4.05141E-006	0.00000E+000	5.20000E-001	1.42815E-003	7	...........	-327.66
	854	1.71	5.49176E-001	4.09879E-006	0.00000E+000	5.50000E-001	1.42471E-003	7	...........	-327.66
	857	1.716	5.79198E-001	4.15904E-006	0.00000E+000	5.80000E-001	1.44540E-003	7	...........	-327.66
	859	1.72	5.99180E-001	4.20643E-006	0.00000E+000	6.00000E-001	1.40574E-003	7	...........	-327.66
CURVE4	TABLE
	Pt	T	Vf	Im	Vu	Sig	Ach	IERange	Over	Temp
	#	s	V vs. Ref.	A	V	V	V	#	bits	deg C
	860	1.722	5.90723E-001	2.84466E-006	0.00000E+000	5.90000E-001	1.44022E-003	7	...........	-327.66
	861	1.724	5.80783E-001	2.11913E-006	0.00000E+000	5.80000E-001	1.42815E-003	7	...........	-327.66
	862	1.726	5.70756E-001	1.59178E-006	0.00000E+000	5.70000E-001	1.42988E-003	7	...........	-327.66
	863	1.728	5.60763E-001	1.16084E-006	0.00000E+000	5.60000E-001	1.37298E-003	7	...........	-327.66
	864	1.73	5.50790E-001	7.95152E-007	0.00000E+000	5.50000E-001	1.39022E-003	7	...........	-327.66
	865	1.732	5.40782E-001	4.73970E-007	0.00000E+000	5.40000E-001	1.44712E-003	7	...........	-327.66
	866	1.734	5.30793E-001	1.88207E-007	0.00000E+000	5.30000E-001	1.44022E-003	7	...........	-327.66
	867	1.736	5.20763E-001	-6.91038E-008	0.00000E+000	5.20000E-001	1.41953E-003	7	...........	-327.66
	868	1.738	5.10761E-001	-3.05050E-007	0.00000E+000	5.10000E-001	1.42298E-003	7	...........	-327.66
	869	1.74	5.00826E-001	-5.20062E-007	0.00000E+000	5.00000E-001	1.40229E-003	7	...........	-327.66
	870	1.742	4.90765E-001	-7.17813E-007	0.00000E+000	4.90000E-001	1.38678E-003	7	...........	-327.66
	871	1.744	4.80746E-001	-9.01941E-007	0.00000E+000	4.80000E-001	1.37643E-003	7	...........	-327.66
	872	1.746	4.70772E-001	-1.07100E-006	0.00000E+000	4.70000E-001	1.37988E-003	7	...........	-327.66
	873	1.748	4.60782E-001	-1.23035E-006	0.00000E+000	4.60000E-001	1.45574E-003	7	...........	-327.66
	874	1.75	4.50837E-001	-1.37913E-006	0.00000E+000	4.50000E-001	1.45402E-003	7	...........	-327.66
	875	1.752	4.40760E-001	-1.51932E-006	0.00000E+000	4.40000E-001	1.35574E-003	7	...........	-327.66
	876	1.754	4.30789E-001	-1.65018E-006	0.00000E+000	4.30000E-001	1.37815E-003	7	...........	-327.66
	877	1.756	4.20800E-001	-1.77459E-006	0.00000E+000	4.20000E-001	1.45919E-003	7	...........	-327.66
	878	1.758	4.10797E-001	-1.89078E-006	0.00000E+000	4.10000E-001	1.39540E-003	7	...........	-327.66
	879	1.76	4.00807E-001	-2.00301E-006	0.00000E+000	4.00000E-001	1.46264E-003	7	...........	-327.66
	880	1.762	3.90791E-001	-2.10824E-006	0.00000E+000	3.90000E-001	1.40229E-003	7	...........	-327.66
	881	1.764	3.80789E-001	-2.20795E-006	0.00000E+000	3.80000E-001	1.36436E-003	7	...........	-327.66
	882	1.766	3.70828E-001	-2.30315E-006	0.00000E+000	3.70000E-001	1.41264E-003	7	...........	-327.66
	883	1.768	3.60782E-001	-2.39502E-006	0.00000E+000	3.60000E-001	1.37126E-003	7	...........	-327.66
	884	1.77	3.50791E-001	-2.48329E-006	0.00000E+000	3.50000E-001	1.40057E-003	7	...........	-327.66
	885	1.772	3.40818E-001	-2.56619E-006	0.00000E+000	3.40000E-001	1.39884E-003	7	...........	-327.66
	886	1.774	3.30811E-001	-2.64601E-006	0.00000E+000	3.30000E-001	1.35402E-003	7	...........	-327.66
	887	1.776	3.20789E-001	-2.72431E-006	0.00000E+000	3.20000E-001	1.39540E-003	7	...........	-327.66
	888	1.778	3.10792E-001	-2.79823E-006	0.00000E+000	3.10000E-001	1.43850E-003	7	...........	-327.66
	889	1.78	3.00809E-001	-2.86964E-006	0.00000E+000	3.00000E-001	1.41091E-003	7	...........	-327.66
	890	1.782	2.90806E-001	-2.93756E-006	0.00000E+000	2.90000E-001	1.45919E-003	7	...........	-327.66
	891	1.784	2.80778E-001	-3.00464E-006	0.00000E+000	2.80000E-001	1.37988E-003	7	...........	-327.66
	892	1.786	2.70827E-001	-3.06948E-006	0.00000E+000	2.70000E-001	1.38160E-003	7	...........	-327.66
	893	1.788	2.60796E-001	-3.13302E-006	0.00000E+000	2.60000E-001	1.37988E-003	7	...........	-327.66
	894	1.79	2.50834E-001	-3.19134E-006	0.00000E+000	2.50000E-001	1.38850E-003	7	...........	-327.66
	895	1.792	2.40809E-001	-3.25085E-006	0.00000E+000	2.40000E-001	1.39367E-003	7	...........	-327.66
	896	1.794	2.30791E-001	-3.30865E-006	0.00000E+000	2.30000E-001	1.43160E-003	7	...........	-327.66
	897	1.796	2.20844E-001	-3.36312E-006	0.00000E+000	2.20000E-001	1.41091E-003	7	...........	-327.66
	898	1.798	2.10794E-001	-3.41761E-006	0.00000E+000	2.10000E-001	1.37298E-003	7	...........	-327.66
	899	1.8	2.00807E-001	-3.47010E-006	0.00000E+000	2.00000E-001	1.41609E-003	7	...........	-327.66
	900	1.802	1.90871E-001	-3.52187E-006	0.00000E+000	1.90000E-001	1.44367E-003	7	...........	-327.66