File: Test_Data_Files/20250509_IF0011_IIA42_PBSair_E04_D_CV5000_PEDOT.DTA
EXPLAIN
TAG	CV
TITLE	LABEL	CV5000	Test Identifier
DATE	LABEL	5/9/2025	Date
TIME	LABEL	14:56:54	Time
NOTES	NOTES	1	Notes...

PSTAT	PSTAT	REF600P-43058	Potentiostat
VINIT	POTEN	0.00000E+000	T	Initial E (V)
VLIMIT1	POTEN	-9.00000E-001	F	Scan Limit 1 (V)
VLIMIT2	POTEN	6.00000E-001	F	Scan Limit 2 (V)
VFINAL	POTEN	0.00000E+000	T	Final E (V)
SCANRATE	QUANT	4.99999E+003	Scan Rate (mV/s)
STEPSIZE	QUANT	1.00000E+001	Step Size (mV)
CYCLES	IQUANT	3	Cycles (#)
IMODE	SELECTOR	1	I/E Range Mode
IRANGE	QUANT	1.00000E-002	Max Current (mA)
AREA	QUANT	1.00000E+000	Sample Area (cm^2)
EQDELAY	QUANT	5.00000E+000	Equil. Time (s)
IRCOMP	SELECTOR	0	IRComp
PFCOR	QUANT	5.00000E+001	PF Corr. (ohm)
SAMPLINGMODE	SELECTOR	2	Sampling Mode
EOC	QUANT	0.1683657	Open Circuit (V)
ELECTRODETYPE	SELECTOR	0	Electrode Type
STRIPPING	TOGGLE	F	Used for Stripping
SEQUENCER	TOGGLE	TRUE	Run as Sequence
PSTATMODEL	IQUANT	7	Pstat Model
PSTATSECTION	LABEL	REF600P-43058	Pstat Section
PSTATSERIALNO	LABEL	43058	Pstat Serial Number
CTRLMODE	IQUANT	1	Control Mode
ELECTROMETER	IQUANT	0	RE=0 or CS=1
IESTAB	IQUANT	2	I/E Stability
CASPEED	IQUANT	4	Control Amp Speed
CONVENTION	IQUANT	1	Current Convention
ICHRANGE	IQUANT	2	Ich Range
ICHRANGEMODE	TOGGLE	F	Ich Auto Range
ICHOFFSETENABLE	TOGGLE	F	Ich Offset Enable
ICHOFFSET	QUANT	0	Ich Offset (V)
ICHFILTER	IQUANT	2	Ich Filter
VCHRANGE	IQUANT	2	Vch Range
VCHRANGEMODE	TOGGLE	F	Vch Auto Range
VCHOFFSETENABLE	TOGGLE	F	Vch Offset Enable
VCHOFFSET	QUANT	0	Vch Offset (V)
VCHFILTER	IQUANT	2	Vch Filter
ACHRANGE	IQUANT	2	Ach Range
ACHOFFSETENABLE	TOGGLE	F	Ach Offset Enable
ACHOFFSET	QUANT	0	Ach Offset (V)
ACHFILTER	IQUANT	1	Ach Filter
IERANGELOWERLIMIT	IQUANT	1	I/E Range Lower Limit
IERANGEMODE	TOGGLE	F	I/E AutoRange
IERANGE	IQUANT	7	I/E Range
POSFEEDENABLE	TOGGLE	F	Positive Feedback IR Comp
POSFEEDRESISTANCE	QUANT	0	Positive Feedback Resistance (ohm)
ACHSELECT	IQUANT	4	Ach Select
SENSECABLEID	IQUANT	7	Sense Cable ID
PWRCABLEID	IQUANT	7	Power Cable ID
DCCALDATE	LABEL	5/8/2025	DC Calibration Date
ACCALDATE	LABEL	5/8/2025	AC Calibration Date
THERMOSELECT	IQUANT	1	Thermo Select
FRAMEWORKVERSION	LABEL	7.10.4	Framework Version
INSTRUMENTVERSION	LABEL	5.01	Instrument Version
COMMVERSION	LABEL	5.10	Communications Version
CPUPLDVERSION	LABEL	6.00	CPU PLD Version
CTRLPLDVERSION	LABEL	3.21	CTRL PLD Version
PSTATPLDVERSION	LABEL	0.00	PSTAT PLD Version
CURVE1	TABLE
	Pt	T	Vf	Im	Vu	Sig	Ach	IERange	Over	Temp
	#	s	V vs. Ref.	A	V	V	V	#	bits	deg C
	0	0.002	1.68536E-001	9.56205E-009	0.00000E+000	1.68350E-001	1.37471E-003	7	...........	-327.66
	3	0.008	1.39233E-001	-1.27775E-006	0.00000E+000	1.38350E-001	1.46781E-003	7	...........	-327.66
	6	0.014	1.09179E-001	-1.82160E-006	0.00000E+000	1.08350E-001	1.48333E-003	7	...........	-327.66
	9	0.02	7.91523E-002	-2.22881E-006	0.00000E+000	7.83500E-002	1.48678E-003	7	...........	-327.66
	12	0.026	4.92161E-002	-2.56588E-006	0.00000E+000	4.83500E-002	1.39712E-003	7	...........	-327.66
	15	0.032	1.91980E-002	-2.85836E-006	0.00000E+000	1.83500E-002	1.49884E-003	7	...........	-327.66
	18	0.038	-1.07442E-002	-3.11424E-006	0.00000E+000	-1.16500E-002	1.50574E-003	7	...........	-327.66
	21	0.044	-4.08201E-002	-3.34483E-006	0.00000E+000	-4.16500E-002	1.42126E-003	7	...........	-327.66
	24	0.05	-7.08287E-002	-3.55558E-006	0.00000E+000	-7.16500E-002	1.44884E-003	7	...........	-327.66
	27	0.056	-1.00823E-001	-3.74643E-006	0.00000E+000	-1.01650E-001	1.37988E-003	7	...........	-327.66
	30	0.062	-1.30830E-001	-3.92453E-006	0.00000E+000	-1.31650E-001	1.48160E-003	7	...........	-327.66
	33	0.068	-1.60824E-001	-4.09276E-006	0.00000E+000	-1.61650E-001	1.41953E-003	7	...........	-327.66
	36	0.074	-1.90777E-001	-4.25021E-006	0.00000E+000	-1.91650E-001	1.40057E-003	7	...........	-327.66
	39	0.08	-2.20754E-001	-4.40063E-006	0.00000E+000	-2.21650E-001	1.46264E-003	7	...........	-327.66
	42	0.086	-2.50780E-001	-4.54264E-006	0.00000E+000	-2.51650E-001	1.46091E-003	7	...........	-327.66
	45	0.092	-2.80802E-001	-4.67361E-006	0.00000E+000	-2.81650E-001	1.46781E-003	7	...........	-327.66
	48	0.098	-3.10800E-001	-4.79554E-006	0.00000E+000	-3.11650E-001	1.50747E-003	7	...........	-327.66
	51	0.104	-3.40792E-001	-4.90581E-006	0.00000E+000	-3.41650E-001	1.52988E-003	7	...........	-327.66
	54	0.11	-3.70752E-001	-5.00024E-006	0.00000E+000	-3.71650E-001	1.39022E-003	7	...........	-327.66
	57	0.116	-4.00790E-001	-5.07820E-006	0.00000E+000	-4.01650E-001	1.50574E-003	7	...........	-327.66
	60	0.122	-4.30781E-001	-5.13900E-006	0.00000E+000	-4.31650E-001	1.50919E-003	7	...........	-327.66
	63	0.128	-4.60777E-001	-5.18308E-006	0.00000E+000	-4.61650E-001	1.46436E-003	7	...........	-327.66
	66	0.134	-4.90778E-001	-5.20996E-006	0.00000E+000	-4.91650E-001	1.45402E-003	7	...........	-327.66
	69	0.14	-5.20819E-001	-5.22062E-006	0.00000E+000	-5.21650E-001	1.43160E-003	7	...........	-327.66
	72	0.146	-5.50738E-001	-5.21141E-006	0.00000E+000	-5.51650E-001	1.52643E-003	7	...........	-327.66
	75	0.152	-5.80755E-001	-5.17018E-006	0.00000E+000	-5.81650E-001	1.41953E-003	7	...........	-327.66
	78	0.158	-6.10784E-001	-5.07636E-006	0.00000E+000	-6.11650E-001	1.44195E-003	7	...........	-327.66
	81	0.164	-6.40766E-001	-4.89768E-006	0.00000E+000	-6.41650E-001	1.47643E-003	7	...........	-327.66
	84	0.17	-6.70676E-001	-4.59798E-006	0.00000E+000	-6.71650E-001	1.48160E-003	7	...........	-327.66
	87	0.176	-7.00718E-001	-4.15452E-006	0.00000E+000	-7.01650E-001	1.39884E-003	7	...........	-327.66
	90	0.182	-7.30726E-001	-3.58791E-006	0.00000E+000	-7.31650E-001	1.49367E-003	7	...........	-327.66
	93	0.188	-7.60747E-001	-2.96353E-006	0.00000E+000	-7.61650E-001	1.47126E-003	7	...........	-327.66
	96	0.194	-7.90745E-001	-2.37145E-006	0.00000E+000	-7.91650E-001	1.38850E-003	7	...........	-327.66
	99	0.2	-8.20777E-001	-1.88001E-006	0.00000E+000	-8.21650E-001	1.42298E-003	7	...........	-327.66
	102	0.206	-8.50735E-001	-1.52127E-006	0.00000E+000	-8.51650E-001	1.51436E-003	7	...........	-327.66
	105	0.212	-8.80744E-001	-1.27965E-006	0.00000E+000	-8.81650E-001	1.47988E-003	7	...........	-327.66
	108	0.218	-8.92367E-001	-1.01401E-006	0.00000E+000	-8.91650E-001	1.47298E-003	7	...........	-327.66
	111	0.224	-8.62362E-001	-7.57767E-007	0.00000E+000	-8.61650E-001	1.44195E-003	7	...........	-327.66
	114	0.23	-8.32175E-001	-6.01539E-007	0.00000E+000	-8.31650E-001	1.52298E-003	7	...........	-327.66
	117	0.236	-8.02365E-001	-4.70900E-007	0.00000E+000	-8.01650E-001	1.46781E-003	7	...........	-327.66
	120	0.242	-7.72315E-001	-3.41900E-007	0.00000E+000	-7.71650E-001	1.45057E-003	7	...........	-327.66
	123	0.248	-7.42368E-001	-1.92293E-007	0.00000E+000	-7.41650E-001	1.43850E-003	7	...........	-327.66
	126	0.254	-7.12366E-001	-1.85330E-009	0.00000E+000	-7.11650E-001	1.42988E-003	7	...........	-327.66
	129	0.26	-6.82386E-001	2.51216E-007	0.00000E+000	-6.81650E-001	1.50919E-003	7	...........	-327.66
	132	0.266	-6.52336E-001	5.91072E-007	0.00000E+000	-6.51650E-001	1.47643E-003	7	...........	-327.66
	135	0.272	-6.22378E-001	1.05113E-006	0.00000E+000	-6.21650E-001	1.42471E-003	7	...........	-327.66
	138	0.278	-5.92367E-001	1.66058E-006	0.00000E+000	-5.91650E-001	1.44884E-003	7	...........	-327.66
	141	0.284	-5.62417E-001	2.45026E-006	0.00000E+000	-5.61650E-001	1.48333E-003	7	...........	-327.66
	144	0.29	-5.32407E-001	3.40959E-006	0.00000E+000	-5.31650E-001	1.43505E-003	7	...........	-327.66
	147	0.296	-5.02377E-001	4.41258E-006	0.00000E+000	-5.01650E-001	1.47643E-003	7	...........	-327.66
	150	0.302	-4.72343E-001	5.16432E-006	0.00000E+000	-4.71650E-001	1.45919E-003	7	...........	-327.66
	153	0.308	-4.42399E-001	5.42102E-006	0.00000E+000	-4.41650E-001	1.43505E-003	7	...........	-327.66
	156	0.314	-4.12397E-001	5.28592E-006	0.00000E+000	-4.11650E-001	1.43333E-003	7	...........	-327.66
	159	0.32	-3.82423E-001	5.03732E-006	0.00000E+000	-3.81650E-001	1.44022E-003	7	...........	-327.66
	162	0.326	-3.52422E-001	4.81748E-006	0.00000E+000	-3.51650E-001	1.40402E-003	7	...........	-327.66
	165	0.332	-3.22400E-001	4.66447E-006	0.00000E+000	-3.21650E-001	1.52815E-003	7	...........	-327.66
	168	0.338	-2.92390E-001	4.56851E-006	0.00000E+000	-2.91650E-001	1.39367E-003	7	...........	-327.66
	171	0.344	-2.62399E-001	4.50902E-006	0.00000E+000	-2.61650E-001	1.49540E-003	7	...........	-327.66
	174	0.35	-2.32420E-001	4.47295E-006	0.00000E+000	-2.31650E-001	1.42988E-003	7	...........	-327.66
	177	0.356	-2.02452E-001	4.44555E-006	0.00000E+000	-2.01650E-001	1.47815E-003	7	...........	-327.66
	180	0.362	-1.72449E-001	4.41842E-006	0.00000E+000	-1.71650E-001	1.40574E-003	7	...........	-327.66
	183	0.368	-1.42402E-001	4.39480E-006	0.00000E+000	-1.41650E-001	1.43505E-003	7	...........	-327.66
	186	0.374	-1.12430E-001	4.37583E-006	0.00000E+000	-1.11650E-001	1.44712E-003	7	...........	-327.66
	189	0.38	-8.24529E-002	4.35922E-006	0.00000E+000	-8.16500E-002	1.50747E-003	7	...........	-327.66
	192	0.386	-5.24468E-002	4.34095E-006	0.00000E+000	-5.16500E-002	1.51091E-003	7	...........	-327.66
	195	0.392	-2.24322E-002	4.32189E-006	0.00000E+000	-2.16500E-002	1.39022E-003	7	...........	-327.66
	198	0.398	7.59455E-003	4.29934E-006	0.00000E+000	8.34998E-003	1.52815E-003	7	...........	-327.66
	201	0.404	3.75980E-002	4.27168E-006	0.00000E+000	3.83500E-002	1.45229E-003	7	...........	-327.66
	204	0.41	6.75980E-002	4.24024E-006	0.00000E+000	6.83500E-002	1.50402E-003	7	...........	-327.66
	207	0.416	9.75816E-002	4.20510E-006	0.00000E+000	9.83500E-002	1.46781E-003	7	...........	-327.66
	210	0.422	1.27570E-001	4.16770E-006	0.00000E+000	1.28350E-001	1.44195E-003	7	...........	-327.66
	213	0.428	1.57558E-001	4.12854E-006	0.00000E+000	1.58350E-001	1.47643E-003	7	...........	-327.66
	216	0.434	1.87581E-001	4.08831E-006	0.00000E+000	1.88350E-001	1.46609E-003	7	...........	-327.66
	219	0.44	2.17598E-001	4.04906E-006	0.00000E+000	2.18350E-001	1.46436E-003	7	...........	-327.66
	222	0.446	2.47542E-001	4.01125E-006	0.00000E+000	2.48350E-001	1.44022E-003	7	...........	-327.66
	225	0.452	2.77540E-001	3.97595E-006	0.00000E+000	2.78350E-001	1.49712E-003	7	...........	-327.66
	228	0.458	3.07535E-001	3.94625E-006	0.00000E+000	3.08350E-001	1.43333E-003	7	...........	-327.66
	231	0.464	3.37570E-001	3.92237E-006	0.00000E+000	3.38350E-001	1.41781E-003	7	...........	-327.66
	234	0.47	3.67567E-001	3.90802E-006	0.00000E+000	3.68350E-001	1.41264E-003	7	...........	-327.66
	237	0.476	3.97550E-001	3.90294E-006	0.00000E+000	3.98350E-001	1.41091E-003	7	...........	-327.66
	240	0.482	4.27546E-001	3.90782E-006	0.00000E+000	4.28350E-001	1.52126E-003	7	...........	-327.66
	243	0.488	4.57555E-001	3.92460E-006	0.00000E+000	4.58350E-001	1.50574E-003	7	...........	-327.66
	246	0.494	4.87531E-001	3.95013E-006	0.00000E+000	4.88350E-001	1.47643E-003	7	...........	-327.66
	249	0.5	5.17507E-001	3.98429E-006	0.00000E+000	5.18350E-001	1.38333E-003	7	...........	-327.66
	252	0.506	5.47543E-001	4.03328E-006	0.00000E+000	5.48350E-001	1.46091E-003	7	...........	-327.66
	255	0.512	5.77551E-001	4.09629E-006	0.00000E+000	5.78350E-001	1.39195E-003	7	...........	-327.66
	257	0.516	5.97527E-001	4.14763E-006	0.00000E+000	5.98350E-001	1.43850E-003	7	...........	-327.66
CURVE2	TABLE
	Pt	T	Vf	Im	Vu	Sig	Ach	IERange	Over	Temp
	#	s	V vs. Ref.	A	V	V	V	#	bits	deg C
	258	0.518	5.90620E-001	2.91498E-006	0.00000E+000	5.90000E-001	1.42298E-003	7	...........	-327.66
	261	0.524	5.60768E-001	1.18241E-006	0.00000E+000	5.60000E-001	1.43678E-003	7	...........	-327.66
	264	0.53	5.30777E-001	2.09055E-007	0.00000E+000	5.30000E-001	1.51091E-003	7	...........	-327.66
	267	0.536	5.00815E-001	-5.03284E-007	0.00000E+000	5.00000E-001	1.41781E-003	7	...........	-327.66
	270	0.542	4.70801E-001	-1.05757E-006	0.00000E+000	4.70000E-001	1.44195E-003	7	...........	-327.66
	273	0.548	4.40758E-001	-1.50687E-006	0.00000E+000	4.40000E-001	1.50057E-003	7	...........	-327.66
	276	0.554	4.10783E-001	-1.87656E-006	0.00000E+000	4.10000E-001	1.40919E-003	7	...........	-327.66
	279	0.56	3.80801E-001	-2.18839E-006	0.00000E+000	3.80000E-001	1.52988E-003	7	...........	-327.66
	282	0.566	3.50806E-001	-2.45600E-006	0.00000E+000	3.50000E-001	1.41609E-003	7	...........	-327.66
	285	0.572	3.20796E-001	-2.68796E-006	0.00000E+000	3.20000E-001	1.47815E-003	7	...........	-327.66
	288	0.578	2.90785E-001	-2.89261E-006	0.00000E+000	2.90000E-001	1.42298E-003	7	...........	-327.66
	291	0.584	2.60787E-001	-3.07877E-006	0.00000E+000	2.60000E-001	1.44540E-003	7	...........	-327.66
	294	0.59	2.30810E-001	-3.24524E-006	0.00000E+000	2.30000E-001	1.40402E-003	7	...........	-327.66
	297	0.596	2.00822E-001	-3.40173E-006	0.00000E+000	2.00000E-001	1.44195E-003	7	...........	-327.66
	300	0.602	1.70857E-001	-3.54666E-006	0.00000E+000	1.70000E-001	1.39022E-003	7	...........	-327.66
	303	0.608	1.40882E-001	-3.68320E-006	0.00000E+000	1.40000E-001	1.43333E-003	7	...........	-327.66
	306	0.614	1.10830E-001	-3.81036E-006	0.00000E+000	1.10000E-001	1.40402E-003	7	...........	-327.66
	309	0.62	8.07963E-002	-3.92956E-006	0.00000E+000	8.00000E-002	1.45574E-003	7	...........	-327.66
	312	0.626	5.08316E-002	-4.04016E-006	0.00000E+000	5.00000E-002	1.41781E-003	7	...........	-327.66
	315	0.632	2.08359E-002	-4.14468E-006	0.00000E+000	2.00000E-002	1.37643E-003	7	...........	-327.66
	318	0.638	-9.13649E-003	-4.23910E-006	0.00000E+000	-1.00000E-002	1.42126E-003	7	...........	-327.66
	321	0.644	-3.91261E-002	-4.32900E-006	0.00000E+000	-4.00000E-002	1.45919E-003	7	...........	-327.66
	324	0.65	-6.91279E-002	-4.41090E-006	0.00000E+000	-7.00000E-002	1.51436E-003	7	...........	-327.66
	327	0.656	-9.91813E-002	-4.48600E-006	0.00000E+000	-1.00000E-001	1.39367E-003	7	...........	-327.66
	330	0.662	-1.29189E-001	-4.55389E-006	0.00000E+000	-1.30000E-001	1.46609E-003	7	...........	-327.66
	333	0.668	-1.59191E-001	-4.61398E-006	0.00000E+000	-1.60000E-001	1.36781E-003	7	...........	-327.66
	336	0.674	-1.89102E-001	-4.66573E-006	0.00000E+000	-1.90000E-001	1.50747E-003	7	...........	-327.66
	339	0.68	-2.19088E-001	-4.71070E-006	0.00000E+000	-2.20000E-001	1.40747E-003	7	...........	-327.66
	342	0.686	-2.49139E-001	-4.74676E-006	0.00000E+000	-2.50000E-001	1.52298E-003	7	...........	-327.66
	345	0.692	-2.79148E-001	-4.77250E-006	0.00000E+000	-2.80000E-001	1.40402E-003	7	...........	-327.66
	348	0.698	-3.09145E-001	-4.78970E-006	0.00000E+000	-3.10000E-001	1.51091E-003	7	...........	-327.66
	351	0.704	-3.39168E-001	-4.79839E-006	0.00000E+000	-3.40000E-001	1.37988E-003	7	...........	-327.66
	354	0.71	-3.69056E-001	-4.79771E-006	0.00000E+000	-3.70000E-001	1.42471E-003	7	...........	-327.66
	357	0.716	-3.99130E-001	-4.79177E-006	0.00000E+000	-4.00000E-001	1.43160E-003	7	...........	-327.66
	360	0.722	-4.29120E-001	-4.77963E-006	0.00000E+000	-4.30000E-001	1.41091E-003	7	...........	-327.66
	363	0.728	-4.59140E-001	-4.76354E-006	0.00000E+000	-4.60000E-001	1.39712E-003	7	...........	-327.66
	366	0.734	-4.89131E-001	-4.74498E-006	0.00000E+000	-4.90000E-001	1.45574E-003	7	...........	-327.66
	369	0.74	-5.19167E-001	-4.72063E-006	0.00000E+000	-5.20000E-001	1.45402E-003	7	...........	-327.66
	372	0.746	-5.49073E-001	-4.68228E-006	0.00000E+000	-5.50000E-001	1.42988E-003	7	...........	-327.66
	375	0.752	-5.79073E-001	-4.61614E-006	0.00000E+000	-5.80000E-001	1.45574E-003	7	...........	-327.66
	378	0.758	-6.09148E-001	-4.49985E-006	0.00000E+000	-6.10000E-001	1.43850E-003	7	...........	-327.66
	381	0.764	-6.39123E-001	-4.30134E-006	0.00000E+000	-6.40000E-001	1.47815E-003	7	...........	-327.66
	384	0.77	-6.69043E-001	-3.99521E-006	0.00000E+000	-6.70000E-001	1.50747E-003	7	...........	-327.66
	387	0.776	-6.99111E-001	-3.59291E-006	0.00000E+000	-7.00000E-001	1.48333E-003	7	...........	-327.66
	390	0.782	-7.29075E-001	-3.10979E-006	0.00000E+000	-7.30000E-001	1.44712E-003	7	...........	-327.66
	393	0.788	-7.59083E-001	-2.60290E-006	0.00000E+000	-7.60000E-001	1.45574E-003	7	...........	-327.66
	396	0.794	-7.89086E-001	-2.12968E-006	0.00000E+000	-7.90000E-001	1.49884E-003	7	...........	-327.66
	399	0.8	-8.19135E-001	-1.74582E-006	0.00000E+000	-8.20000E-001	1.42471E-003	7	...........	-327.66
	402	0.806	-8.49136E-001	-1.44833E-006	0.00000E+000	-8.50000E-001	1.45057E-003	7	...........	-327.66
	405	0.812	-8.79142E-001	-1.23726E-006	0.00000E+000	-8.80000E-001	1.43160E-003	7	...........	-327.66
	408	0.818	-8.90649E-001	-9.91661E-007	0.00000E+000	-8.90000E-001	1.43333E-003	7	...........	-327.66
	411	0.824	-8.60701E-001	-7.44575E-007	0.00000E+000	-8.60000E-001	1.43678E-003	7	...........	-327.66
	414	0.83	-8.30650E-001	-5.87312E-007	0.00000E+000	-8.30000E-001	1.49022E-003	7	...........	-327.66
	417	0.836	-8.00668E-001	-4.56260E-007	0.00000E+000	-8.00000E-001	1.50574E-003	7	...........	-327.66
	420	0.842	-7.70669E-001	-3.22087E-007	0.00000E+000	-7.70000E-001	1.38850E-003	7	...........	-327.66
	423	0.848	-7.40738E-001	-1.62634E-007	0.00000E+000	-7.40000E-001	1.40574E-003	7	...........	-327.66
	426	0.854	-7.10655E-001	3.96006E-008	0.00000E+000	-7.10000E-001	1.42126E-003	7	...........	-327.66
	429	0.86	-6.80680E-001	3.06896E-007	0.00000E+000	-6.80000E-001	1.48160E-003	7	...........	-327.66
	432	0.866	-6.50687E-001	6.65582E-007	0.00000E+000	-6.50000E-001	1.41091E-003	7	...........	-327.66
	435	0.872	-6.20731E-001	1.14582E-006	0.00000E+000	-6.20000E-001	1.49195E-003	7	...........	-327.66
	438	0.878	-5.90755E-001	1.78208E-006	0.00000E+000	-5.90000E-001	1.45229E-003	7	...........	-327.66
[...]
	732	1.466	-6.50682E-001	6.89189E-007	0.00000E+000	-6.50000E-001	1.44367E-003	7	...........	-327.66
	735	1.472	-6.20718E-001	1.18076E-006	0.00000E+000	-6.20000E-001	1.38333E-003	7	...........	-327.66
	738	1.478	-5.90738E-001	1.82514E-006	0.00000E+000	-5.90000E-001	1.51781E-003	7	...........	-327.66
	741	1.484	-5.60791E-001	2.64882E-006	0.00000E+000	-5.60000E-001	1.40229E-003	7	...........	-327.66
	744	1.49	-5.30755E-001	3.62868E-006	0.00000E+000	-5.30000E-001	1.48850E-003	7	...........	-327.66
	747	1.496	-5.00696E-001	4.60027E-006	0.00000E+000	-5.00000E-001	1.41781E-003	7	...........	-327.66
	750	1.502	-4.70690E-001	5.23805E-006	0.00000E+000	-4.70000E-001	1.39540E-003	7	...........	-327.66
	753	1.508	-4.40766E-001	5.35908E-006	0.00000E+000	-4.40000E-001	1.44884E-003	7	...........	-327.66
	756	1.514	-4.10777E-001	5.14718E-006	0.00000E+000	-4.10000E-001	1.41436E-003	7	...........	-327.66
	759	1.52	-3.80794E-001	4.87110E-006	0.00000E+000	-3.80000E-001	1.40747E-003	7	...........	-327.66
	762	1.526	-3.50765E-001	4.65837E-006	0.00000E+000	-3.50000E-001	1.52815E-003	7	...........	-327.66
	765	1.532	-3.20780E-001	4.52247E-006	0.00000E+000	-3.20000E-001	1.45057E-003	7	...........	-327.66
	768	1.538	-2.90768E-001	4.44812E-006	0.00000E+000	-2.90000E-001	1.49367E-003	7	...........	-327.66
	771	1.544	-2.60780E-001	4.40340E-006	0.00000E+000	-2.60000E-001	1.52126E-003	7	...........	-327.66
	774	1.55	-2.30766E-001	4.36729E-006	0.00000E+000	-2.30000E-001	1.52471E-003	7	...........	-327.66
	777	1.556	-2.00836E-001	4.33803E-006	0.00000E+000	-2.00000E-001	1.48850E-003	7	...........	-327.66
	780	1.562	-1.70808E-001	4.31727E-006	0.00000E+000	-1.70000E-001	1.50574E-003	7	...........	-327.66
	783	1.568	-1.40782E-001	4.30208E-006	0.00000E+000	-1.40000E-001	1.52298E-003	7	...........	-327.66
	786	1.574	-1.10811E-001	4.29021E-006	0.00000E+000	-1.10000E-001	1.46091E-003	7	...........	-327.66
	789	1.58	-8.08020E-002	4.27928E-006	0.00000E+000	-8.00000E-002	1.46264E-003	7	...........	-327.66
	792	1.586	-5.08089E-002	4.26885E-006	0.00000E+000	-5.00000E-002	1.47471E-003	7	...........	-327.66
	795	1.592	-2.07960E-002	4.25481E-006	0.00000E+000	-2.00000E-002	1.41091E-003	7	...........	-327.66
	798	1.598	9.23420E-003	4.23936E-006	0.00000E+000	9.99999E-003	1.43850E-003	7	...........	-327.66
	801	1.604	3.91333E-002	4.21958E-006	0.00000E+000	4.00000E-002	1.39022E-003	7	...........	-327.66
	804	1.61	6.92394E-002	4.19549E-006	0.00000E+000	7.00000E-002	1.47471E-003	7	...........	-327.66
	807	1.616	9.92152E-002	4.16575E-006	0.00000E+000	1.00000E-001	1.43505E-003	7	...........	-327.66
	810	1.622	1.29239E-001	4.13585E-006	0.00000E+000	1.30000E-001	1.42471E-003	7	...........	-327.66
	813	1.628	1.59213E-001	4.10324E-006	0.00000E+000	1.60000E-001	1.43850E-003	7	...........	-327.66
	816	1.634	1.89224E-001	4.06979E-006	0.00000E+000	1.90000E-001	1.42298E-003	7	...........	-327.66
	819	1.64	2.19201E-001	4.03742E-006	0.00000E+000	2.20000E-001	1.49195E-003	7	...........	-327.66
	822	1.646	2.49235E-001	4.00654E-006	0.00000E+000	2.50000E-001	1.47471E-003	7	...........	-327.66
	825	1.652	2.79175E-001	3.97783E-006	0.00000E+000	2.80000E-001	1.39712E-003	7	...........	-327.66
	828	1.658	3.09185E-001	3.95484E-006	0.00000E+000	3.10000E-001	1.49712E-003	7	...........	-327.66
	831	1.664	3.39199E-001	3.93753E-006	0.00000E+000	3.40000E-001	1.45574E-003	7	...........	-327.66
	834	1.67	3.69214E-001	3.92922E-006	0.00000E+000	3.70000E-001	1.39367E-003	7	...........	-327.66
	837	1.676	3.99194E-001	3.92973E-006	0.00000E+000	4.00000E-001	1.41953E-003	7	...........	-327.66
	840	1.682	4.29184E-001	3.93982E-006	0.00000E+000	4.30000E-001	1.41781E-003	7	...........	-327.66
	843	1.688	4.59202E-001	3.96327E-006	0.00000E+000	4.60000E-001	1.49195E-003	7	...........	-327.66
	846	1.694	4.89170E-001	3.99707E-006	0.00000E+000	4.90000E-001	1.40057E-003	7	...........	-327.66
	849	1.7	5.19135E-001	4.04315E-006	0.00000E+000	5.20000E-001	1.42298E-003	7	...........	-327.66
	852	1.706	5.49199E-001	4.10240E-006	0.00000E+000	5.50000E-001	1.53678E-003	7	...........	-327.66
	855	1.712	5.79186E-001	4.16720E-006	0.00000E+000	5.80000E-001	1.48333E-003	7	...........	-327.66
	857	1.716	5.99165E-001	4.21412E-006	0.00000E+000	6.00000E-001	1.43333E-003	7	...........	-327.66
CURVE4	TABLE
	Pt	T	Vf	Im	Vu	Sig	Ach	IERange	Over	Temp
	#	s	V vs. Ref.	A	V	V	V	#	bits	deg C
	858	1.718	5.90751E-001	2.82858E-006	0.00000E+000	5.90000E-001	1.40574E-003	7	...........	-327.66
	859	1.72	5.80750E-001	2.07888E-006	0.00000E+000	5.80000E-001	1.45402E-003	7	...........	-327.66
	860	1.722	5.70751E-001	1.53372E-006	0.00000E+000	5.70000E-001	1.48333E-003	7	...........	-327.66
	861	1.724	5.60740E-001	1.09085E-006	0.00000E+000	5.60000E-001	1.43505E-003	7	...........	-327.66
	862	1.726	5.50753E-001	7.11830E-007	0.00000E+000	5.50000E-001	1.37126E-003	7	...........	-327.66
	863	1.728	5.40773E-001	3.81199E-007	0.00000E+000	5.40000E-001	1.41264E-003	7	...........	-327.66
	864	1.73	5.30779E-001	8.59173E-008	0.00000E+000	5.30000E-001	1.44884E-003	7	...........	-327.66
	865	1.732	5.20755E-001	-1.81033E-007	0.00000E+000	5.20000E-001	1.48505E-003	7	...........	-327.66
	866	1.734	5.10771E-001	-4.21428E-007	0.00000E+000	5.10000E-001	1.46091E-003	7	...........	-327.66
	867	1.736	5.00814E-001	-6.41596E-007	0.00000E+000	5.00000E-001	1.42126E-003	7	...........	-327.66
	868	1.738	4.90752E-001	-8.44089E-007	0.00000E+000	4.90000E-001	1.42126E-003	7	...........	-327.66
	869	1.74	4.80752E-001	-1.03048E-006	0.00000E+000	4.80000E-001	1.42643E-003	7	...........	-327.66
	870	1.742	4.70770E-001	-1.20288E-006	0.00000E+000	4.70000E-001	1.40057E-003	7	...........	-327.66
	871	1.744	4.60785E-001	-1.36325E-006	0.00000E+000	4.60000E-001	1.40229E-003	7	...........	-327.66
	872	1.746	4.50820E-001	-1.51215E-006	0.00000E+000	4.50000E-001	1.39884E-003	7	...........	-327.66
	873	1.748	4.40754E-001	-1.65296E-006	0.00000E+000	4.40000E-001	1.42298E-003	7	...........	-327.66
	874	1.75	4.30773E-001	-1.78263E-006	0.00000E+000	4.30000E-001	1.39195E-003	7	...........	-327.66
	875	1.752	4.20814E-001	-1.90399E-006	0.00000E+000	4.20000E-001	1.49195E-003	7	...........	-327.66
	876	1.754	4.10773E-001	-2.01797E-006	0.00000E+000	4.10000E-001	1.45574E-003	7	...........	-327.66
	877	1.756	4.00813E-001	-2.12621E-006	0.00000E+000	4.00000E-001	1.49884E-003	7	...........	-327.66
	878	1.758	3.90802E-001	-2.22986E-006	0.00000E+000	3.90000E-001	1.49367E-003	7	...........	-327.66
	879	1.76	3.80807E-001	-2.32503E-006	0.00000E+000	3.80000E-001	1.49884E-003	7	...........	-327.66
	880	1.762	3.70825E-001	-2.41523E-006	0.00000E+000	3.70000E-001	1.46436E-003	7	...........	-327.66
	881	1.764	3.60782E-001	-2.50318E-006	0.00000E+000	3.60000E-001	1.46953E-003	7	...........	-327.66
	882	1.766	3.50814E-001	-2.58598E-006	0.00000E+000	3.50000E-001	1.42988E-003	7	...........	-327.66
	883	1.768	3.40817E-001	-2.66354E-006	0.00000E+000	3.40000E-001	1.50402E-003	7	...........	-327.66
	884	1.77	3.30827E-001	-2.73766E-006	0.00000E+000	3.30000E-001	1.46091E-003	7	...........	-327.66
	885	1.772	3.20792E-001	-2.80886E-006	0.00000E+000	3.20000E-001	1.47643E-003	7	...........	-327.66
	886	1.774	3.10783E-001	-2.87783E-006	0.00000E+000	3.10000E-001	1.48678E-003	7	...........	-327.66
	887	1.776	3.00811E-001	-2.94422E-006	0.00000E+000	3.00000E-001	1.53160E-003	7	...........	-327.66
	888	1.778	2.90810E-001	-3.00669E-006	0.00000E+000	2.90000E-001	1.49540E-003	7	...........	-327.66
	889	1.78	2.80790E-001	-3.06824E-006	0.00000E+000	2.80000E-001	1.50574E-003	7	...........	-327.66
	890	1.782	2.70854E-001	-3.12706E-006	0.00000E+000	2.70000E-001	1.46264E-003	7	...........	-327.66
	891	1.784	2.60792E-001	-3.18375E-006	0.00000E+000	2.60000E-001	1.46781E-003	7	...........	-327.66
	892	1.786	2.50825E-001	-3.23747E-006	0.00000E+000	2.50000E-001	1.44540E-003	7	...........	-327.66
	893	1.788	2.40809E-001	-3.29189E-006	0.00000E+000	2.40000E-001	1.42126E-003	7	...........	-327.66
	894	1.79	2.30791E-001	-3.34271E-006	0.00000E+000	2.30000E-001	1.42988E-003	7	...........	-327.66
	895	1.792	2.20832E-001	-3.39342E-006	0.00000E+000	2.20000E-001	1.48333E-003	7	...........	-327.66
	896	1.794	2.10789E-001	-3.44260E-006	0.00000E+000	2.10000E-001	1.47988E-003	7	...........	-327.66
	897	1.796	2.00825E-001	-3.48990E-006	0.00000E+000	2.00000E-001	1.43333E-003	7	...........	-327.66
	898	1.798	1.90842E-001	-3.53642E-006	0.00000E+000	1.90000E-001	1.41091E-003	7	...........	-327.66
	899	1.8	1.80820E-001	-3.58196E-006	0.00000E+000	1.80000E-001	1.50229E-003	7	...........	-327.66
	900	1.802	1.70895E-001	-3.62638E-006	0.00000E+000	1.70000E-001	1.41953E-003	7	...........	-327.66