File: Test_Data_Files/20250509_IF0011_IIA42_PBSair_E01_D_CV5000_PEDOT.DTA
EXPLAIN
TAG	CV
TITLE	LABEL	CV5000	Test Identifier
DATE	LABEL	5/9/2025	Date
TIME	LABEL	16:23:41	Time
NOTES	NOTES	1	Notes...

PSTAT	PSTAT	REF600P-43058	Potentiostat
VINIT	POTEN	0.00000E+000	T	Initial E (V)
VLIMIT1	POTEN	-9.00000E-001	F	Scan Limit 1 (V)
VLIMIT2	POTEN	6.00000E-001	F	Scan Limit 2 (V)
VFINAL	POTEN	0.00000E+000	T	Final E (V)
SCANRATE	QUANT	4.99999E+003	Scan Rate (mV/s)
STEPSIZE	QUANT	1.00000E+001	Step Size (mV)
CYCLES	IQUANT	3	Cycles (#)
IMODE	SELECTOR	1	I/E Range Mode
IRANGE	QUANT	1.00000E-002	Max Current (mA)
AREA	QUANT	1.00000E+000	Sample Area (cm^2)
EQDELAY	QUANT	5.00000E+000	Equil. Time (s)
IRCOMP	SELECTOR	0	IRComp
PFCOR	QUANT	5.00000E+001	PF Corr. (ohm)
SAMPLINGMODE	SELECTOR	2	Sampling Mode
EOC	QUANT	0.3165924	Open Circuit (V)
ELECTRODETYPE	SELECTOR	0	Electrode Type
STRIPPING	TOGGLE	F	Used for Stripping
SEQUENCER	TOGGLE	TRUE	Run as Sequence
PSTATMODEL	IQUANT	7	Pstat Model
PSTATSECTION	LABEL	REF600P-43058	Pstat Section
PSTATSERIALNO	LABEL	43058	Pstat Serial Number
CTRLMODE	IQUANT	1	Control Mode
ELECTROMETER	IQUANT	0	RE=0 or CS=1
IESTAB	IQUANT	2	I/E Stability
CASPEED	IQUANT	4	Control Amp Speed
CONVENTION	IQUANT	1	Current Convention
ICHRANGE	IQUANT	2	Ich Range
ICHRANGEMODE	TOGGLE	F	Ich Auto Range
ICHOFFSETENABLE	TOGGLE	F	Ich Offset Enable
ICHOFFSET	QUANT	0	Ich Offset (V)
ICHFILTER	IQUANT	2	Ich Filter
VCHRANGE	IQUANT	2	Vch Range
VCHRANGEMODE	TOGGLE	F	Vch Auto Range
VCHOFFSETENABLE	TOGGLE	F	Vch Offset Enable
VCHOFFSET	QUANT	0	Vch Offset (V)
VCHFILTER	IQUANT	2	Vch Filter
ACHRANGE	IQUANT	2	Ach Range
ACHOFFSETENABLE	TOGGLE	F	Ach Offset Enable
ACHOFFSET	QUANT	0	Ach Offset (V)
ACHFILTER	IQUANT	1	Ach Filter
IERANGELOWERLIMIT	IQUANT	1	I/E Range Lower Limit
IERANGEMODE	TOGGLE	F	I/E AutoRange
IERANGE	IQUANT	7	I/E Range
POSFEEDENABLE	TOGGLE	F	Positive Feedback IR Comp
POSFEEDRESISTANCE	QUANT	0	Positive Feedback Resistance (ohm)
ACHSELECT	IQUANT	4	Ach Select
SENSECABLEID	IQUANT	7	Sense Cable ID
PWRCABLEID	IQUANT	7	Power Cable ID
DCCALDATE	LABEL	5/8/2025	DC Calibration Date
ACCALDATE	LABEL	5/8/2025	AC Calibration Date
THERMOSELECT	IQUANT	1	Thermo Select
FRAMEWORKVERSION	LABEL	7.10.4	Framework Version
INSTRUMENTVERSION	LABEL	5.01	Instrument Version
COMMVERSION	LABEL	5.10	Communications Version
CPUPLDVERSION	LABEL	6.00	CPU PLD Version
CTRLPLDVERSION	LABEL	3.21	CTRL PLD Version
PSTATPLDVERSION	LABEL	0.00	PSTAT PLD Version
CURVE1	TABLE
	Pt	T	Vf	Im	Vu	Sig	Ach	IERange	Over	Temp
	#	s	V vs. Ref.	A	V	V	V	#	bits	deg C
	0	0.002	3.16557E-001	1.09415E-008	0.00000E+000	3.16600E-001	1.35919E-003	7	...........	-327.66
	3	0.008	2.87313E-001	-9.01584E-008	0.00000E+000	2.86600E-001	1.41781E-003	7	...........	-327.66
	6	0.014	2.57380E-001	-9.36417E-008	0.00000E+000	2.56600E-001	1.42126E-003	7	...........	-327.66
	9	0.02	2.27381E-001	-9.65559E-008	0.00000E+000	2.26600E-001	1.36609E-003	7	...........	-327.66
	12	0.026	1.97444E-001	-1.00281E-007	0.00000E+000	1.96600E-001	1.35574E-003	7	...........	-327.66
	15	0.032	1.67438E-001	-1.04833E-007	0.00000E+000	1.66600E-001	1.38505E-003	7	...........	-327.66
	18	0.038	1.37467E-001	-1.08575E-007	0.00000E+000	1.36600E-001	1.41436E-003	7	...........	-327.66
	21	0.044	1.07420E-001	-1.13696E-007	0.00000E+000	1.06600E-001	1.41609E-003	7	...........	-327.66
	24	0.05	7.73747E-002	-1.18783E-007	0.00000E+000	7.66000E-002	1.42643E-003	7	...........	-327.66
	27	0.056	4.74178E-002	-1.23008E-007	0.00000E+000	4.66000E-002	1.39712E-003	7	...........	-327.66
	30	0.062	1.74178E-002	-1.28267E-007	0.00000E+000	1.66000E-002	1.40057E-003	7	...........	-327.66
	33	0.068	-1.25546E-002	-1.32595E-007	0.00000E+000	-1.34000E-002	1.39712E-003	7	...........	-327.66
	36	0.074	-4.26037E-002	-1.36751E-007	0.00000E+000	-4.34000E-002	1.42126E-003	7	...........	-327.66
	39	0.08	-7.25908E-002	-1.41665E-007	0.00000E+000	-7.34000E-002	1.43333E-003	7	...........	-327.66
	42	0.086	-1.02606E-001	-1.43890E-007	0.00000E+000	-1.03400E-001	1.39884E-003	7	...........	-327.66
	45	0.092	-1.32606E-001	-1.47373E-007	0.00000E+000	-1.33400E-001	1.41781E-003	7	...........	-327.66
	48	0.098	-1.62605E-001	-1.49977E-007	0.00000E+000	-1.63400E-001	1.39367E-003	7	...........	-327.66
	51	0.104	-1.92571E-001	-1.51994E-007	0.00000E+000	-1.93400E-001	1.36264E-003	7	...........	-327.66
	54	0.11	-2.22512E-001	-1.54391E-007	0.00000E+000	-2.23400E-001	1.38505E-003	7	...........	-327.66
	57	0.116	-2.52583E-001	-1.56495E-007	0.00000E+000	-2.53400E-001	1.38850E-003	7	...........	-327.66
	60	0.122	-2.82541E-001	-1.57892E-007	0.00000E+000	-2.83400E-001	1.42643E-003	7	...........	-327.66
	63	0.128	-3.12603E-001	-1.60151E-007	0.00000E+000	-3.13400E-001	1.38160E-003	7	...........	-327.66
	66	0.134	-3.42519E-001	-1.62030E-007	0.00000E+000	-3.43400E-001	1.41436E-003	7	...........	-327.66
	69	0.14	-3.72535E-001	-1.65013E-007	0.00000E+000	-3.73400E-001	1.36609E-003	7	...........	-327.66
	72	0.146	-4.02574E-001	-1.68083E-007	0.00000E+000	-4.03400E-001	1.42815E-003	7	...........	-327.66
	75	0.152	-4.32566E-001	-1.71187E-007	0.00000E+000	-4.33400E-001	1.40747E-003	7	...........	-327.66
	78	0.158	-4.62502E-001	-1.73687E-007	0.00000E+000	-4.63400E-001	1.38678E-003	7	...........	-327.66
	81	0.164	-4.92509E-001	-1.77015E-007	0.00000E+000	-4.93400E-001	1.38505E-003	7	...........	-327.66
	84	0.17	-5.22491E-001	-1.77308E-007	0.00000E+000	-5.23400E-001	1.38333E-003	7	...........	-327.66
	87	0.176	-5.52561E-001	-1.79291E-007	0.00000E+000	-5.53400E-001	1.38333E-003	7	...........	-327.66
	90	0.182	-5.82502E-001	-1.81740E-007	0.00000E+000	-5.83400E-001	1.38333E-003	7	...........	-327.66
	93	0.188	-6.12561E-001	-1.84257E-007	0.00000E+000	-6.13400E-001	1.37471E-003	7	...........	-327.66
	96	0.194	-6.42542E-001	-1.86465E-007	0.00000E+000	-6.43400E-001	1.40229E-003	7	...........	-327.66
	99	0.2	-6.72493E-001	-1.88396E-007	0.00000E+000	-6.73400E-001	1.39712E-003	7	...........	-327.66
	102	0.206	-7.02481E-001	-1.90620E-007	0.00000E+000	-7.03400E-001	1.41436E-003	7	...........	-327.66
	105	0.212	-7.32491E-001	-1.92759E-007	0.00000E+000	-7.33400E-001	1.41609E-003	7	...........	-327.66
	108	0.218	-7.62529E-001	-1.95242E-007	0.00000E+000	-7.63400E-001	1.38333E-003	7	...........	-327.66
	111	0.224	-7.92548E-001	-1.93810E-007	0.00000E+000	-7.93400E-001	1.37815E-003	7	...........	-327.66
	114	0.23	-8.22471E-001	-1.85120E-007	0.00000E+000	-8.23400E-001	1.41609E-003	7	...........	-327.66
	117	0.236	-8.52510E-001	-1.63772E-007	0.00000E+000	-8.53400E-001	1.41609E-003	7	...........	-327.66
	120	0.242	-8.82489E-001	-1.36268E-007	0.00000E+000	-8.83400E-001	1.40229E-003	7	...........	-327.66
	123	0.248	-8.94127E-001	-3.07710E-008	0.00000E+000	-8.93400E-001	1.39540E-003	7	...........	-327.66
	126	0.254	-8.64118E-001	2.18913E-008	0.00000E+000	-8.63400E-001	1.40574E-003	7	...........	-327.66
	129	0.26	-8.34105E-001	5.75341E-008	0.00000E+000	-8.33400E-001	1.43505E-003	7	...........	-327.66
	132	0.266	-8.04073E-001	8.75554E-008	0.00000E+000	-8.03400E-001	1.37815E-003	7	...........	-327.66
	135	0.272	-7.74099E-001	1.07851E-007	0.00000E+000	-7.73400E-001	1.41609E-003	7	...........	-327.66
	138	0.278	-7.44108E-001	1.18939E-007	0.00000E+000	-7.43400E-001	1.45747E-003	7	...........	-327.66
	141	0.284	-7.14119E-001	1.24095E-007	0.00000E+000	-7.13400E-001	1.39540E-003	7	...........	-327.66
	144	0.29	-6.84100E-001	1.31510E-007	0.00000E+000	-6.83400E-001	1.40747E-003	7	...........	-327.66
	147	0.296	-6.54105E-001	1.33820E-007	0.00000E+000	-6.53400E-001	1.40229E-003	7	...........	-327.66
	150	0.302	-6.24108E-001	1.33441E-007	0.00000E+000	-6.23400E-001	1.42298E-003	7	...........	-327.66
	153	0.308	-5.94117E-001	1.36545E-007	0.00000E+000	-5.93400E-001	1.40919E-003	7	...........	-327.66
	156	0.314	-5.64176E-001	1.37079E-007	0.00000E+000	-5.63400E-001	1.39022E-003	7	...........	-327.66
	159	0.32	-5.34173E-001	1.36804E-007	0.00000E+000	-5.33400E-001	1.40057E-003	7	...........	-327.66
	162	0.326	-5.04034E-001	1.38442E-007	0.00000E+000	-5.03400E-001	1.39540E-003	7	...........	-327.66
	165	0.332	-4.74120E-001	1.39856E-007	0.00000E+000	-4.73400E-001	1.35057E-003	7	...........	-327.66
	168	0.338	-4.44140E-001	1.41856E-007	0.00000E+000	-4.43400E-001	1.42988E-003	7	...........	-327.66
	171	0.344	-4.14175E-001	1.44822E-007	0.00000E+000	-4.13400E-001	1.37298E-003	7	...........	-327.66
	174	0.35	-3.84084E-001	1.48822E-007	0.00000E+000	-3.83400E-001	1.36953E-003	7	...........	-327.66
	177	0.356	-3.54192E-001	1.52357E-007	0.00000E+000	-3.53400E-001	1.37471E-003	7	...........	-327.66
	180	0.362	-3.24119E-001	1.56134E-007	0.00000E+000	-3.23400E-001	1.39367E-003	7	...........	-327.66
	183	0.368	-2.94185E-001	1.58876E-007	0.00000E+000	-2.93400E-001	1.37298E-003	7	...........	-327.66
	186	0.374	-2.64077E-001	1.60427E-007	0.00000E+000	-2.63400E-001	1.40574E-003	7	...........	-327.66
	189	0.38	-2.34184E-001	1.62410E-007	0.00000E+000	-2.33400E-001	1.37643E-003	7	...........	-327.66
	192	0.386	-2.04184E-001	1.64790E-007	0.00000E+000	-2.03400E-001	1.38678E-003	7	...........	-327.66
	195	0.392	-1.74225E-001	1.66256E-007	0.00000E+000	-1.73400E-001	1.38850E-003	7	...........	-327.66
	198	0.398	-1.44177E-001	1.67239E-007	0.00000E+000	-1.43400E-001	1.39022E-003	7	...........	-327.66
	201	0.404	-1.14212E-001	1.68308E-007	0.00000E+000	-1.13400E-001	1.36781E-003	7	...........	-327.66
	204	0.41	-8.41451E-002	1.68584E-007	0.00000E+000	-8.34000E-002	1.39712E-003	7	...........	-327.66
	207	0.416	-5.42072E-002	1.68687E-007	0.00000E+000	-5.34000E-002	1.35402E-003	7	...........	-327.66
	210	0.422	-2.41503E-002	1.68618E-007	0.00000E+000	-2.34000E-002	1.38678E-003	7	...........	-327.66
	213	0.428	5.84627E-003	1.68066E-007	0.00000E+000	6.59999E-003	1.42643E-003	7	...........	-327.66
	216	0.434	3.58721E-002	1.67377E-007	0.00000E+000	3.66000E-002	1.42643E-003	7	...........	-327.66
	219	0.44	6.58023E-002	1.67342E-007	0.00000E+000	6.66000E-002	1.38160E-003	7	...........	-327.66
	222	0.446	9.58782E-002	1.66721E-007	0.00000E+000	9.66000E-002	1.37643E-003	7	...........	-327.66
	225	0.452	1.25819E-001	1.67653E-007	0.00000E+000	1.26600E-001	1.37643E-003	7	...........	-327.66
	228	0.458	1.55834E-001	1.67532E-007	0.00000E+000	1.56600E-001	1.37815E-003	7	...........	-327.66
	231	0.464	1.85809E-001	1.66963E-007	0.00000E+000	1.86600E-001	1.44022E-003	7	...........	-327.66
	234	0.47	2.15790E-001	1.68239E-007	0.00000E+000	2.16600E-001	1.37643E-003	7	...........	-327.66
	237	0.476	2.45792E-001	1.68015E-007	0.00000E+000	2.46600E-001	1.34022E-003	7	...........	-327.66
	240	0.482	2.75770E-001	1.67359E-007	0.00000E+000	2.76600E-001	1.35057E-003	7	...........	-327.66
	243	0.488	3.05767E-001	1.67911E-007	0.00000E+000	3.06600E-001	1.36781E-003	7	...........	-327.66
	246	0.494	3.35807E-001	1.67411E-007	0.00000E+000	3.36600E-001	1.35747E-003	7	...........	-327.66
	249	0.5	3.65776E-001	1.67032E-007	0.00000E+000	3.66600E-001	1.38850E-003	7	...........	-327.66
	252	0.506	3.95794E-001	1.67756E-007	0.00000E+000	3.96600E-001	1.36264E-003	7	...........	-327.66
	255	0.512	4.25788E-001	1.67549E-007	0.00000E+000	4.26600E-001	1.37815E-003	7	...........	-327.66
	258	0.518	4.55826E-001	1.66825E-007	0.00000E+000	4.56600E-001	1.36609E-003	7	...........	-327.66
	261	0.524	4.85763E-001	1.66825E-007	0.00000E+000	4.86600E-001	1.37815E-003	7	...........	-327.66
	264	0.53	5.15733E-001	1.67566E-007	0.00000E+000	5.16600E-001	1.40747E-003	7	...........	-327.66
	267	0.536	5.45762E-001	1.69239E-007	0.00000E+000	5.46600E-001	1.36436E-003	7	...........	-327.66
	270	0.542	5.75888E-001	1.71826E-007	0.00000E+000	5.76600E-001	1.37988E-003	7	...........	-327.66
	272	0.546	5.95745E-001	1.75429E-007	0.00000E+000	5.96600E-001	1.38333E-003	7	...........	-327.66
CURVE2	TABLE
	Pt	T	Vf	Im	Vu	Sig	Ach	IERange	Over	Temp
	#	s	V vs. Ref.	A	V	V	V	#	bits	deg C
	273	0.548	5.90481E-001	-1.11994E-008	0.00000E+000	5.90000E-001	1.39022E-003	7	...........	-327.66
	276	0.554	5.60759E-001	-7.31216E-008	0.00000E+000	5.60000E-001	1.41264E-003	7	...........	-327.66
	279	0.56	5.30753E-001	-8.39679E-008	0.00000E+000	5.30000E-001	1.38333E-003	7	...........	-327.66
	282	0.566	5.00789E-001	-8.92618E-008	0.00000E+000	5.00000E-001	1.37643E-003	7	...........	-327.66
	285	0.572	4.70745E-001	-9.27622E-008	0.00000E+000	4.70000E-001	1.39884E-003	7	...........	-327.66
	288	0.578	4.40746E-001	-9.72628E-008	0.00000E+000	4.40000E-001	1.35919E-003	7	...........	-327.66
	291	0.584	4.10770E-001	-9.88320E-008	0.00000E+000	4.10000E-001	1.37471E-003	7	...........	-327.66
	294	0.59	3.80786E-001	-1.01263E-007	0.00000E+000	3.80000E-001	1.41781E-003	7	...........	-327.66
	297	0.596	3.50790E-001	-1.04074E-007	0.00000E+000	3.50000E-001	1.40229E-003	7	...........	-327.66
	300	0.602	3.20773E-001	-1.06471E-007	0.00000E+000	3.20000E-001	1.40747E-003	7	...........	-327.66
	303	0.608	2.90767E-001	-1.08437E-007	0.00000E+000	2.90000E-001	1.42298E-003	7	...........	-327.66
	306	0.614	2.60775E-001	-1.11817E-007	0.00000E+000	2.60000E-001	1.42471E-003	7	...........	-327.66
	309	0.62	2.30791E-001	-1.13489E-007	0.00000E+000	2.30000E-001	1.38333E-003	7	...........	-327.66
	312	0.626	2.00739E-001	-1.16110E-007	0.00000E+000	2.00000E-001	1.36953E-003	7	...........	-327.66
	315	0.632	1.70818E-001	-1.18524E-007	0.00000E+000	1.70000E-001	1.41091E-003	7	...........	-327.66
	318	0.638	1.40863E-001	-1.20887E-007	0.00000E+000	1.40000E-001	1.40229E-003	7	...........	-327.66
	321	0.644	1.10815E-001	-1.24284E-007	0.00000E+000	1.10000E-001	1.40402E-003	7	...........	-327.66
	324	0.65	8.07428E-002	-1.26819E-007	0.00000E+000	8.00000E-002	1.39195E-003	7	...........	-327.66
	327	0.656	5.07868E-002	-1.28077E-007	0.00000E+000	5.00000E-002	1.41609E-003	7	...........	-327.66
	330	0.662	2.07971E-002	-1.30681E-007	0.00000E+000	2.00000E-002	1.39367E-003	7	...........	-327.66
	333	0.668	-9.21838E-003	-1.32043E-007	0.00000E+000	-1.00000E-002	1.40574E-003	7	...........	-327.66
	336	0.674	-3.91589E-002	-1.34182E-007	0.00000E+000	-4.00000E-002	1.37988E-003	7	...........	-327.66
	339	0.68	-6.91684E-002	-1.35941E-007	0.00000E+000	-7.00000E-002	1.39195E-003	7	...........	-327.66
	342	0.686	-9.91908E-002	-1.37820E-007	0.00000E+000	-1.00000E-001	1.43678E-003	7	...........	-327.66
	345	0.692	-1.29225E-001	-1.39338E-007	0.00000E+000	-1.30000E-001	1.36953E-003	7	...........	-327.66
	348	0.698	-1.59237E-001	-1.41217E-007	0.00000E+000	-1.60000E-001	1.36781E-003	7	...........	-327.66
	351	0.704	-1.89210E-001	-1.42476E-007	0.00000E+000	-1.90000E-001	1.40919E-003	7	...........	-327.66
	354	0.71	-2.19122E-001	-1.44200E-007	0.00000E+000	-2.20000E-001	1.39884E-003	7	...........	-327.66
	357	0.716	-2.49168E-001	-1.45183E-007	0.00000E+000	-2.50000E-001	1.39884E-003	7	...........	-327.66
	360	0.722	-2.79211E-001	-1.47235E-007	0.00000E+000	-2.80000E-001	1.40574E-003	7	...........	-327.66
	363	0.728	-3.09174E-001	-1.48287E-007	0.00000E+000	-3.10000E-001	1.38678E-003	7	...........	-327.66
	366	0.734	-3.39187E-001	-1.50322E-007	0.00000E+000	-3.40000E-001	1.38333E-003	7	...........	-327.66
	369	0.74	-3.69100E-001	-1.52098E-007	0.00000E+000	-3.70000E-001	1.40402E-003	7	...........	-327.66
	372	0.746	-3.99163E-001	-1.54943E-007	0.00000E+000	-4.00000E-001	1.36953E-003	7	...........	-327.66
	375	0.752	-4.29141E-001	-1.56254E-007	0.00000E+000	-4.30000E-001	1.41436E-003	7	...........	-327.66
	378	0.758	-4.59161E-001	-1.59478E-007	0.00000E+000	-4.60000E-001	1.41264E-003	7	...........	-327.66
	381	0.764	-4.89170E-001	-1.60685E-007	0.00000E+000	-4.90000E-001	1.40229E-003	7	...........	-327.66
	384	0.77	-5.19197E-001	-1.61151E-007	0.00000E+000	-5.20000E-001	1.39540E-003	7	...........	-327.66
	387	0.776	-5.49173E-001	-1.62306E-007	0.00000E+000	-5.50000E-001	1.37815E-003	7	...........	-327.66
	390	0.782	-5.79103E-001	-1.64720E-007	0.00000E+000	-5.80000E-001	1.36436E-003	7	...........	-327.66
	393	0.788	-6.09177E-001	-1.66514E-007	0.00000E+000	-6.10000E-001	1.41781E-003	7	...........	-327.66
	396	0.794	-6.39155E-001	-1.69445E-007	0.00000E+000	-6.40000E-001	1.40229E-003	7	...........	-327.66
	399	0.8	-6.69075E-001	-1.71652E-007	0.00000E+000	-6.70000E-001	1.35574E-003	7	...........	-327.66
	402	0.806	-6.99115E-001	-1.74808E-007	0.00000E+000	-7.00000E-001	1.35057E-003	7	...........	-327.66
	405	0.812	-7.29090E-001	-1.77084E-007	0.00000E+000	-7.30000E-001	1.37643E-003	7	...........	-327.66
	408	0.818	-7.59116E-001	-1.78636E-007	0.00000E+000	-7.60000E-001	1.40402E-003	7	...........	-327.66
	411	0.824	-7.89146E-001	-1.79395E-007	0.00000E+000	-7.90000E-001	1.42988E-003	7	...........	-327.66
	414	0.83	-8.19157E-001	-1.72428E-007	0.00000E+000	-8.20000E-001	1.39367E-003	7	...........	-327.66
	417	0.836	-8.49174E-001	-1.52960E-007	0.00000E+000	-8.50000E-001	1.39712E-003	7	...........	-327.66
	420	0.842	-8.79148E-001	-1.27991E-007	0.00000E+000	-8.80000E-001	1.40402E-003	7	...........	-327.66
	423	0.848	-8.90733E-001	-1.77865E-008	0.00000E+000	-8.90000E-001	1.41436E-003	7	...........	-327.66
	426	0.854	-8.60711E-001	3.21686E-008	0.00000E+000	-8.60000E-001	1.42126E-003	7	...........	-327.66
	429	0.86	-8.30643E-001	6.63284E-008	0.00000E+000	-8.30000E-001	1.40747E-003	7	...........	-327.66
	432	0.866	-8.00730E-001	9.43667E-008	0.00000E+000	-8.00000E-001	1.39540E-003	7	...........	-327.66
	435	0.872	-7.70731E-001	1.14059E-007	0.00000E+000	-7.70000E-001	1.37298E-003	7	...........	-327.66
	438	0.878	-7.40756E-001	1.22457E-007	0.00000E+000	-7.40000E-001	1.38505E-003	7	...........	-327.66
[...]
	702	1.406	-6.99127E-001	-1.70756E-007	0.00000E+000	-7.00000E-001	1.40057E-003	7	...........	-327.66
	705	1.412	-7.29115E-001	-1.73325E-007	0.00000E+000	-7.30000E-001	1.37126E-003	7	...........	-327.66
	708	1.418	-7.59130E-001	-1.76015E-007	0.00000E+000	-7.60000E-001	1.36953E-003	7	...........	-327.66
	711	1.424	-7.89157E-001	-1.76153E-007	0.00000E+000	-7.90000E-001	1.40229E-003	7	...........	-327.66
	714	1.43	-8.19161E-001	-1.69790E-007	0.00000E+000	-8.20000E-001	1.38505E-003	7	...........	-327.66
	717	1.436	-8.49188E-001	-1.50184E-007	0.00000E+000	-8.50000E-001	1.42643E-003	7	...........	-327.66
	720	1.442	-8.79167E-001	-1.24473E-007	0.00000E+000	-8.80000E-001	1.35402E-003	7	...........	-327.66
	723	1.448	-8.90742E-001	-1.47861E-008	0.00000E+000	-8.90000E-001	1.36091E-003	7	...........	-327.66
	726	1.454	-8.60679E-001	3.48414E-008	0.00000E+000	-8.60000E-001	1.40919E-003	7	...........	-327.66
	729	1.46	-8.30624E-001	6.86908E-008	0.00000E+000	-8.30000E-001	1.41091E-003	7	...........	-327.66
	732	1.466	-8.00725E-001	9.69015E-008	0.00000E+000	-8.00000E-001	1.39712E-003	7	...........	-327.66
	735	1.472	-7.70739E-001	1.15094E-007	0.00000E+000	-7.70000E-001	1.41436E-003	7	...........	-327.66
	738	1.478	-7.40769E-001	1.23888E-007	0.00000E+000	-7.40000E-001	1.40574E-003	7	...........	-327.66
	741	1.484	-7.10701E-001	1.28992E-007	0.00000E+000	-7.10000E-001	1.37643E-003	7	...........	-327.66
	744	1.49	-6.80687E-001	1.33631E-007	0.00000E+000	-6.80000E-001	1.38333E-003	7	...........	-327.66
	747	1.496	-6.50715E-001	1.33044E-007	0.00000E+000	-6.50000E-001	1.39884E-003	7	...........	-327.66
	750	1.502	-6.20734E-001	1.36976E-007	0.00000E+000	-6.20000E-001	1.42471E-003	7	...........	-327.66
	753	1.508	-5.90710E-001	1.36786E-007	0.00000E+000	-5.90000E-001	1.41264E-003	7	...........	-327.66
	756	1.514	-5.60781E-001	1.36079E-007	0.00000E+000	-5.60000E-001	1.37126E-003	7	...........	-327.66
	759	1.52	-5.30727E-001	1.37907E-007	0.00000E+000	-5.30000E-001	1.37815E-003	7	...........	-327.66
	762	1.526	-5.00687E-001	1.38286E-007	0.00000E+000	-5.00000E-001	1.41781E-003	7	...........	-327.66
	765	1.532	-4.70718E-001	1.37769E-007	0.00000E+000	-4.70000E-001	1.40919E-003	7	...........	-327.66
	768	1.538	-4.40756E-001	1.42391E-007	0.00000E+000	-4.40000E-001	1.39540E-003	7	...........	-327.66
	771	1.544	-4.10771E-001	1.44511E-007	0.00000E+000	-4.10000E-001	1.41781E-003	7	...........	-327.66
	774	1.55	-3.80781E-001	1.47460E-007	0.00000E+000	-3.80000E-001	1.43160E-003	7	...........	-327.66
	777	1.556	-3.50778E-001	1.51754E-007	0.00000E+000	-3.50000E-001	1.37643E-003	7	...........	-327.66
	780	1.562	-3.20797E-001	1.54254E-007	0.00000E+000	-3.20000E-001	1.39884E-003	7	...........	-327.66
	783	1.568	-2.90776E-001	1.57117E-007	0.00000E+000	-2.90000E-001	1.40402E-003	7	...........	-327.66
	786	1.574	-2.60781E-001	1.58513E-007	0.00000E+000	-2.60000E-001	1.37298E-003	7	...........	-327.66
	789	1.58	-2.30795E-001	1.60979E-007	0.00000E+000	-2.30000E-001	1.37298E-003	7	...........	-327.66
	792	1.586	-2.00798E-001	1.62566E-007	0.00000E+000	-2.00000E-001	1.38333E-003	7	...........	-327.66
	795	1.592	-1.70786E-001	1.63376E-007	0.00000E+000	-1.70000E-001	1.37988E-003	7	...........	-327.66
	798	1.598	-1.40770E-001	1.64118E-007	0.00000E+000	-1.40000E-001	1.39712E-003	7	...........	-327.66
	801	1.604	-1.10805E-001	1.65945E-007	0.00000E+000	-1.10000E-001	1.38850E-003	7	...........	-327.66
	804	1.61	-8.07830E-002	1.66101E-007	0.00000E+000	-8.00000E-002	1.38160E-003	7	...........	-327.66
	807	1.616	-5.08141E-002	1.65428E-007	0.00000E+000	-5.00000E-002	1.37643E-003	7	...........	-327.66
	810	1.622	-2.07882E-002	1.65945E-007	0.00000E+000	-2.00000E-002	1.39712E-003	7	...........	-327.66
	813	1.628	9.20834E-003	1.65997E-007	0.00000E+000	9.99999E-003	1.39022E-003	7	...........	-327.66
	816	1.634	3.90152E-002	1.65083E-007	0.00000E+000	4.00000E-002	1.41953E-003	7	...........	-327.66
	819	1.64	6.92359E-002	1.64187E-007	0.00000E+000	7.00000E-002	1.38160E-003	7	...........	-327.66
	822	1.646	9.92170E-002	1.64549E-007	0.00000E+000	1.00000E-001	1.41091E-003	7	...........	-327.66
	825	1.652	1.29243E-001	1.65859E-007	0.00000E+000	1.30000E-001	1.37815E-003	7	...........	-327.66
	828	1.658	1.59195E-001	1.65135E-007	0.00000E+000	1.60000E-001	1.39367E-003	7	...........	-327.66
	831	1.664	1.89199E-001	1.65221E-007	0.00000E+000	1.90000E-001	1.40574E-003	7	...........	-327.66
	834	1.67	2.19207E-001	1.65807E-007	0.00000E+000	2.20000E-001	1.36091E-003	7	...........	-327.66
	837	1.676	2.49222E-001	1.65945E-007	0.00000E+000	2.50000E-001	1.41609E-003	7	...........	-327.66
	840	1.682	2.79196E-001	1.65049E-007	0.00000E+000	2.80000E-001	1.45574E-003	7	...........	-327.66
	843	1.688	3.09183E-001	1.66290E-007	0.00000E+000	3.10000E-001	1.36264E-003	7	...........	-327.66
	846	1.694	3.39199E-001	1.65325E-007	0.00000E+000	3.40000E-001	1.40919E-003	7	...........	-327.66
	849	1.7	3.69210E-001	1.66170E-007	0.00000E+000	3.70000E-001	1.37298E-003	7	...........	-327.66
	852	1.706	3.99182E-001	1.66083E-007	0.00000E+000	4.00000E-001	1.38160E-003	7	...........	-327.66
	855	1.712	4.29195E-001	1.65394E-007	0.00000E+000	4.30000E-001	1.37815E-003	7	...........	-327.66
	858	1.718	4.59173E-001	1.65980E-007	0.00000E+000	4.60000E-001	1.39195E-003	7	...........	-327.66
	861	1.724	4.89161E-001	1.66808E-007	0.00000E+000	4.90000E-001	1.37126E-003	7	...........	-327.66
	864	1.73	5.19183E-001	1.67204E-007	0.00000E+000	5.20000E-001	1.43505E-003	7	...........	-327.66
	867	1.736	5.49179E-001	1.69515E-007	0.00000E+000	5.50000E-001	1.39367E-003	7	...........	-327.66
	870	1.742	5.79191E-001	1.72964E-007	0.00000E+000	5.80000E-001	1.40747E-003	7	...........	-327.66
	872	1.746	5.99179E-001	1.76430E-007	0.00000E+000	6.00000E-001	1.39540E-003	7	...........	-327.66
CURVE4	TABLE
	Pt	T	Vf	Im	Vu	Sig	Ach	IERange	Over	Temp
	#	s	V vs. Ref.	A	V	V	V	#	bits	deg C
	873	1.748	5.90743E-001	-4.84286E-008	0.00000E+000	5.90000E-001	1.38850E-003	7	...........	-327.66
	874	1.75	5.80771E-001	-6.21029E-008	0.00000E+000	5.80000E-001	1.40229E-003	7	...........	-327.66
	875	1.752	5.70745E-001	-6.92935E-008	0.00000E+000	5.70000E-001	1.39367E-003	7	...........	-327.66
	876	1.754	5.60744E-001	-7.35700E-008	0.00000E+000	5.60000E-001	1.37471E-003	7	...........	-327.66
	877	1.756	5.50774E-001	-7.79499E-008	0.00000E+000	5.50000E-001	1.35574E-003	7	...........	-327.66
	878	1.758	5.40766E-001	-8.25712E-008	0.00000E+000	5.40000E-001	1.33505E-003	7	...........	-327.66
	879	1.76	5.30738E-001	-8.49336E-008	0.00000E+000	5.30000E-001	1.41091E-003	7	...........	-327.66
	880	1.762	5.20743E-001	-8.65717E-008	0.00000E+000	5.20000E-001	1.35747E-003	7	...........	-327.66
	881	1.764	5.10766E-001	-8.86755E-008	0.00000E+000	5.10000E-001	1.39540E-003	7	...........	-327.66
	882	1.766	5.00772E-001	-8.97446E-008	0.00000E+000	5.00000E-001	1.38160E-003	7	...........	-327.66
	883	1.768	4.90733E-001	-9.12275E-008	0.00000E+000	4.90000E-001	1.40574E-003	7	...........	-327.66
	884	1.77	4.80742E-001	-9.20897E-008	0.00000E+000	4.80000E-001	1.39022E-003	7	...........	-327.66
	885	1.772	4.70730E-001	-9.38141E-008	0.00000E+000	4.70000E-001	1.35402E-003	7	...........	-327.66
	886	1.774	4.60763E-001	-9.46246E-008	0.00000E+000	4.60000E-001	1.41264E-003	7	...........	-327.66
	887	1.776	4.50820E-001	-9.60041E-008	0.00000E+000	4.50000E-001	1.39022E-003	7	...........	-327.66
	888	1.778	4.40750E-001	-9.72801E-008	0.00000E+000	4.40000E-001	1.39367E-003	7	...........	-327.66
	889	1.78	4.30755E-001	-9.79698E-008	0.00000E+000	4.30000E-001	1.37643E-003	7	...........	-327.66
	890	1.782	4.20771E-001	-9.91424E-008	0.00000E+000	4.20000E-001	1.40057E-003	7	...........	-327.66
	891	1.784	4.10751E-001	-9.95045E-008	0.00000E+000	4.10000E-001	1.37298E-003	7	...........	-327.66
	892	1.786	4.00777E-001	-9.98839E-008	0.00000E+000	4.00000E-001	1.41609E-003	7	...........	-327.66
	893	1.788	3.90763E-001	-1.01143E-007	0.00000E+000	3.90000E-001	1.41781E-003	7	...........	-327.66
	894	1.79	3.80771E-001	-1.01832E-007	0.00000E+000	3.80000E-001	1.42298E-003	7	...........	-327.66
	895	1.792	3.70763E-001	-1.02246E-007	0.00000E+000	3.70000E-001	1.38160E-003	7	...........	-327.66
	896	1.794	3.60746E-001	-1.03850E-007	0.00000E+000	3.60000E-001	1.33160E-003	7	...........	-327.66
	897	1.796	3.50786E-001	-1.04678E-007	0.00000E+000	3.50000E-001	1.39022E-003	7	...........	-327.66
	898	1.798	3.40797E-001	-1.05298E-007	0.00000E+000	3.40000E-001	1.37298E-003	7	...........	-327.66
	899	1.8	3.30779E-001	-1.06126E-007	0.00000E+000	3.30000E-001	1.43160E-003	7	...........	-327.66
	900	1.802	3.20759E-001	-1.06695E-007	0.00000E+000	3.20000E-001	1.39195E-003	7	...........	-327.66