File: Test_Data_Files/20250509_IF0011_IIA42_PBSair_E01_E_CV50000_PEDOT.DTA
EXPLAIN
TAG	CV
TITLE	LABEL	CV50000	Test Identifier
DATE	LABEL	5/9/2025	Date
TIME	LABEL	16:23:53	Time
NOTES	NOTES	1	Notes...

PSTAT	PSTAT	REF600P-43058	Potentiostat
VINIT	POTEN	0.00000E+000	T	Initial E (V)
VLIMIT1	POTEN	-9.00000E-001	F	Scan Limit 1 (V)
VLIMIT2	POTEN	6.00000E-001	F	Scan Limit 2 (V)
VFINAL	POTEN	0.00000E+000	T	Final E (V)
SCANRATE	QUANT	4.99999E+004	Scan Rate (mV/s)
STEPSIZE	QUANT	1.00000E+001	Step Size (mV)
CYCLES	IQUANT	3	Cycles (#)
IMODE	SELECTOR	1	I/E Range Mode
IRANGE	QUANT	1.00000E-002	Max Current (mA)
AREA	QUANT	1.00000E+000	Sample Area (cm^2)
EQDELAY	QUANT	5.00000E+000	Equil. Time (s)
IRCOMP	SELECTOR	0	IRComp
PFCOR	QUANT	5.00000E+001	PF Corr. (ohm)
SAMPLINGMODE	SELECTOR	2	Sampling Mode
EOC	QUANT	0.3165924	Open Circuit (V)
ELECTRODETYPE	SELECTOR	0	Electrode Type
STRIPPING	TOGGLE	F	Used for Stripping
SEQUENCER	TOGGLE	TRUE	Run as Sequence
PSTATMODEL	IQUANT	7	Pstat Model
PSTATSECTION	LABEL	REF600P-43058	Pstat Section
PSTATSERIALNO	LABEL	43058	Pstat Serial Number
CTRLMODE	IQUANT	1	Control Mode
ELECTROMETER	IQUANT	0	RE=0 or CS=1
IESTAB	IQUANT	2	I/E Stability
CASPEED	IQUANT	4	Control Amp Speed
CONVENTION	IQUANT	1	Current Convention
ICHRANGE	IQUANT	2	Ich Range
ICHRANGEMODE	TOGGLE	F	Ich Auto Range
ICHOFFSETENABLE	TOGGLE	F	Ich Offset Enable
ICHOFFSET	QUANT	0	Ich Offset (V)
ICHFILTER	IQUANT	1	Ich Filter
VCHRANGE	IQUANT	2	Vch Range
VCHRANGEMODE	TOGGLE	F	Vch Auto Range
VCHOFFSETENABLE	TOGGLE	F	Vch Offset Enable
VCHOFFSET	QUANT	0	Vch Offset (V)
VCHFILTER	IQUANT	1	Vch Filter
ACHRANGE	IQUANT	2	Ach Range
ACHOFFSETENABLE	TOGGLE	F	Ach Offset Enable
ACHOFFSET	QUANT	0	Ach Offset (V)
ACHFILTER	IQUANT	1	Ach Filter
IERANGELOWERLIMIT	IQUANT	1	I/E Range Lower Limit
IERANGEMODE	TOGGLE	F	I/E AutoRange
IERANGE	IQUANT	7	I/E Range
POSFEEDENABLE	TOGGLE	F	Positive Feedback IR Comp
POSFEEDRESISTANCE	QUANT	0	Positive Feedback Resistance (ohm)
ACHSELECT	IQUANT	4	Ach Select
SENSECABLEID	IQUANT	7	Sense Cable ID
PWRCABLEID	IQUANT	7	Power Cable ID
DCCALDATE	LABEL	5/8/2025	DC Calibration Date
ACCALDATE	LABEL	5/8/2025	AC Calibration Date
THERMOSELECT	IQUANT	1	Thermo Select
FRAMEWORKVERSION	LABEL	7.10.4	Framework Version
INSTRUMENTVERSION	LABEL	5.01	Instrument Version
COMMVERSION	LABEL	5.10	Communications Version
CPUPLDVERSION	LABEL	6.00	CPU PLD Version
CTRLPLDVERSION	LABEL	3.21	CTRL PLD Version
PSTATPLDVERSION	LABEL	0.00	PSTAT PLD Version
CURVE1	TABLE
	Pt	T	Vf	Im	Vu	Sig	Ach	IERange	Over	Temp
	#	s	V vs. Ref.	A	V	V	V	#	bits	deg C
	0	0.0002	3.16662E-001	1.06554E-008	0.00000E+000	3.16600E-001	1.06522E-003	7	...........	-327.66
	3	0.0008	2.86625E-001	-9.25472E-007	0.00000E+000	2.86600E-001	9.90224E-004	7	...........	-327.66
	6	0.0014	2.56750E-001	-9.59227E-007	0.00000E+000	2.56600E-001	1.09022E-003	7	...........	-327.66
	9	0.002	2.26687E-001	-9.82480E-007	0.00000E+000	2.26600E-001	1.14022E-003	7	...........	-327.66
	12	0.0026	1.96700E-001	-1.01048E-006	0.00000E+000	1.96600E-001	1.01522E-003	7	...........	-327.66
	15	0.0032	1.66725E-001	-1.03424E-006	0.00000E+000	1.66600E-001	1.04022E-003	7	...........	-327.66
	18	0.0038	1.36750E-001	-1.06699E-006	0.00000E+000	1.36600E-001	1.06522E-003	7	...........	-327.66
	21	0.0044	1.06687E-001	-1.10300E-006	0.00000E+000	1.06600E-001	1.21522E-003	7	...........	-327.66
	24	0.005	7.67123E-002	-1.13800E-006	0.00000E+000	7.66000E-002	1.21522E-003	7	...........	-327.66
	27	0.0056	4.66373E-002	-1.17526E-006	0.00000E+000	4.66000E-002	1.16522E-003	7	...........	-327.66
	30	0.0062	1.67623E-002	-1.21426E-006	0.00000E+000	1.66000E-002	9.90224E-004	7	...........	-327.66
	33	0.0068	-1.33252E-002	-1.25702E-006	0.00000E+000	-1.34000E-002	9.40224E-004	7	...........	-327.66
	36	0.0074	-4.32752E-002	-1.29402E-006	0.00000E+000	-4.34000E-002	1.06522E-003	7	...........	-327.66
	39	0.008	-7.33252E-002	-1.33253E-006	0.00000E+000	-7.34000E-002	1.09022E-003	7	...........	-327.66
	42	0.0086	-1.03275E-001	-1.37003E-006	0.00000E+000	-1.03400E-001	9.65224E-004	7	...........	-327.66
	45	0.0092	-1.33325E-001	-1.40304E-006	0.00000E+000	-1.33400E-001	1.19022E-003	7	...........	-327.66
	48	0.0098	-1.63313E-001	-1.43179E-006	0.00000E+000	-1.63400E-001	1.21522E-003	7	...........	-327.66
	51	0.0104	-1.93313E-001	-1.45854E-006	0.00000E+000	-1.93400E-001	1.11522E-003	7	...........	-327.66
	54	0.011	-2.23263E-001	-1.47655E-006	0.00000E+000	-2.23400E-001	1.14022E-003	7	...........	-327.66
	57	0.0116	-2.53338E-001	-1.48880E-006	0.00000E+000	-2.53400E-001	1.01522E-003	7	...........	-327.66
	60	0.0122	-2.83263E-001	-1.50155E-006	0.00000E+000	-2.83400E-001	9.90224E-004	7	...........	-327.66
	63	0.0128	-3.13288E-001	-1.50755E-006	0.00000E+000	-3.13400E-001	1.04022E-003	7	...........	-327.66
	66	0.0134	-3.43275E-001	-1.51555E-006	0.00000E+000	-3.43400E-001	1.04022E-003	7	...........	-327.66
	69	0.014	-3.73275E-001	-1.52105E-006	0.00000E+000	-3.73400E-001	1.11522E-003	7	...........	-327.66
	72	0.0146	-4.03263E-001	-1.52805E-006	0.00000E+000	-4.03400E-001	1.11522E-003	7	...........	-327.66
	75	0.0152	-4.33275E-001	-1.53105E-006	0.00000E+000	-4.33400E-001	1.09022E-003	7	...........	-327.66
	78	0.0158	-4.63225E-001	-1.53781E-006	0.00000E+000	-4.63400E-001	1.11522E-003	7	...........	-327.66
	81	0.0164	-4.93213E-001	-1.53756E-006	0.00000E+000	-4.93400E-001	9.40224E-004	7	...........	-327.66
	84	0.017	-5.23250E-001	-1.53481E-006	0.00000E+000	-5.23400E-001	1.21522E-003	7	...........	-327.66
	87	0.0176	-5.53263E-001	-1.54106E-006	0.00000E+000	-5.53400E-001	1.01522E-003	7	...........	-327.66
	90	0.0182	-5.83225E-001	-1.54806E-006	0.00000E+000	-5.83400E-001	1.11522E-003	7	...........	-327.66
	93	0.0188	-6.13325E-001	-1.56106E-006	0.00000E+000	-6.13400E-001	1.04022E-003	7	...........	-327.66
	96	0.0194	-6.43313E-001	-1.57381E-006	0.00000E+000	-6.43400E-001	1.04022E-003	7	...........	-327.66
	99	0.02	-6.73225E-001	-1.59031E-006	0.00000E+000	-6.73400E-001	1.06522E-003	7	...........	-327.66
	102	0.0206	-7.03288E-001	-1.59806E-006	0.00000E+000	-7.03400E-001	1.11522E-003	7	...........	-327.66
	105	0.0212	-7.33175E-001	-1.60631E-006	0.00000E+000	-7.33400E-001	1.11522E-003	7	...........	-327.66
	108	0.0218	-7.63350E-001	-1.60531E-006	0.00000E+000	-7.63400E-001	1.04022E-003	7	...........	-327.66
	111	0.0224	-7.93300E-001	-1.58181E-006	0.00000E+000	-7.93400E-001	1.09022E-003	7	...........	-327.66
	114	0.023	-8.23213E-001	-1.50305E-006	0.00000E+000	-8.23400E-001	1.09022E-003	7	...........	-327.66
	117	0.0236	-8.53263E-001	-1.32103E-006	0.00000E+000	-8.53400E-001	1.09022E-003	7	...........	-327.66
	120	0.0242	-8.83263E-001	-1.04699E-006	0.00000E+000	-8.83400E-001	1.04022E-003	7	...........	-327.66
	123	0.0248	-8.93288E-001	-4.12402E-007	0.00000E+000	-8.93400E-001	1.11522E-003	7	...........	-327.66
	126	0.0254	-8.63250E-001	1.92930E-007	0.00000E+000	-8.63400E-001	1.11522E-003	7	...........	-327.66
	129	0.026	-8.33225E-001	5.70732E-007	0.00000E+000	-8.33400E-001	1.21522E-003	7	...........	-327.66
	132	0.0266	-8.03238E-001	8.60771E-007	0.00000E+000	-8.03400E-001	1.04022E-003	7	...........	-327.66
	135	0.0272	-7.73213E-001	1.04980E-006	0.00000E+000	-7.73400E-001	1.01522E-003	7	...........	-327.66
	138	0.0278	-7.43263E-001	1.14606E-006	0.00000E+000	-7.43400E-001	1.06522E-003	7	...........	-327.66
	141	0.0284	-7.13175E-001	1.18957E-006	0.00000E+000	-7.13400E-001	1.11522E-003	7	...........	-327.66
	144	0.029	-6.83300E-001	1.20782E-006	0.00000E+000	-6.83400E-001	1.14022E-003	7	...........	-327.66
	147	0.0296	-6.53138E-001	1.21682E-006	0.00000E+000	-6.53400E-001	1.14022E-003	7	...........	-327.66
	150	0.0302	-6.23163E-001	1.22932E-006	0.00000E+000	-6.23400E-001	1.24022E-003	7	...........	-327.66
	153	0.0308	-5.93250E-001	1.23882E-006	0.00000E+000	-5.93400E-001	1.06522E-003	7	...........	-327.66
	156	0.0314	-5.63263E-001	1.24407E-006	0.00000E+000	-5.63400E-001	1.06522E-003	7	...........	-327.66
	159	0.032	-5.33288E-001	1.24807E-006	0.00000E+000	-5.33400E-001	1.11522E-003	7	...........	-327.66
	162	0.0326	-5.03288E-001	1.25357E-006	0.00000E+000	-5.03400E-001	1.14022E-003	7	...........	-327.66
	165	0.0332	-4.73250E-001	1.26033E-006	0.00000E+000	-4.73400E-001	1.04022E-003	7	...........	-327.66
	168	0.0338	-4.43263E-001	1.27458E-006	0.00000E+000	-4.43400E-001	1.09022E-003	7	...........	-327.66
	171	0.0344	-4.13288E-001	1.29283E-006	0.00000E+000	-4.13400E-001	9.65224E-004	7	...........	-327.66
	174	0.035	-3.83313E-001	1.31883E-006	0.00000E+000	-3.83400E-001	1.09022E-003	7	...........	-327.66
	177	0.0356	-3.53275E-001	1.34034E-006	0.00000E+000	-3.53400E-001	9.90224E-004	7	...........	-327.66
	180	0.0362	-3.23325E-001	1.36159E-006	0.00000E+000	-3.23400E-001	1.01522E-003	7	...........	-327.66
	183	0.0368	-2.93238E-001	1.38284E-006	0.00000E+000	-2.93400E-001	1.29022E-003	7	...........	-327.66
	186	0.0374	-2.63213E-001	1.39309E-006	0.00000E+000	-2.63400E-001	1.14022E-003	7	...........	-327.66
	189	0.038	-2.33238E-001	1.40485E-006	0.00000E+000	-2.33400E-001	9.15224E-004	7	...........	-327.66
	192	0.0386	-2.03338E-001	1.41385E-006	0.00000E+000	-2.03400E-001	1.06522E-003	7	...........	-327.66
	195	0.0392	-1.73325E-001	1.42210E-006	0.00000E+000	-1.73400E-001	1.01522E-003	7	...........	-327.66
	198	0.0398	-1.43238E-001	1.42935E-006	0.00000E+000	-1.43400E-001	1.16522E-003	7	...........	-327.66
	201	0.0404	-1.13238E-001	1.43460E-006	0.00000E+000	-1.13400E-001	1.11522E-003	7	...........	-327.66
	204	0.041	-8.32627E-002	1.43210E-006	0.00000E+000	-8.34000E-002	1.06522E-003	7	...........	-327.66
	207	0.0416	-5.32877E-002	1.43335E-006	0.00000E+000	-5.34000E-002	9.65224E-004	7	...........	-327.66
	210	0.0422	-2.32502E-002	1.43110E-006	0.00000E+000	-2.34000E-002	1.06522E-003	7	...........	-327.66
	213	0.0428	6.74981E-003	1.42485E-006	0.00000E+000	6.59999E-003	1.06522E-003	7	...........	-327.66
	216	0.0434	3.67498E-002	1.41560E-006	0.00000E+000	3.66000E-002	1.04022E-003	7	...........	-327.66
	219	0.044	6.65873E-002	1.40610E-006	0.00000E+000	6.66000E-002	9.40224E-004	7	...........	-327.66
	222	0.0446	9.67373E-002	1.40109E-006	0.00000E+000	9.66000E-002	1.14022E-003	7	...........	-327.66
	225	0.0452	1.26687E-001	1.39559E-006	0.00000E+000	1.26600E-001	1.14022E-003	7	...........	-327.66
	228	0.0458	1.56737E-001	1.39134E-006	0.00000E+000	1.56600E-001	1.11522E-003	7	...........	-327.66
	231	0.0464	1.86725E-001	1.38134E-006	0.00000E+000	1.86600E-001	1.24022E-003	7	...........	-327.66
	234	0.047	2.16750E-001	1.37909E-006	0.00000E+000	2.16600E-001	1.19022E-003	7	...........	-327.66
	237	0.0476	2.46800E-001	1.37359E-006	0.00000E+000	2.46600E-001	1.14022E-003	7	...........	-327.66
	240	0.0482	2.76687E-001	1.36834E-006	0.00000E+000	2.76600E-001	1.09022E-003	7	...........	-327.66
	243	0.0488	3.06737E-001	1.36359E-006	0.00000E+000	3.06600E-001	1.14022E-003	7	...........	-327.66
	246	0.0494	3.36750E-001	1.36209E-006	0.00000E+000	3.36600E-001	1.09022E-003	7	...........	-327.66
	249	0.05	3.66700E-001	1.35584E-006	0.00000E+000	3.66600E-001	1.01522E-003	7	...........	-327.66
	252	0.0506	3.96675E-001	1.35534E-006	0.00000E+000	3.96600E-001	1.01522E-003	7	...........	-327.66
	255	0.0512	4.26737E-001	1.35284E-006	0.00000E+000	4.26600E-001	9.40224E-004	7	...........	-327.66
	258	0.0518	4.56725E-001	1.35409E-006	0.00000E+000	4.56600E-001	1.04022E-003	7	...........	-327.66
	261	0.0524	4.86612E-001	1.35159E-006	0.00000E+000	4.86600E-001	1.04022E-003	7	...........	-327.66
	264	0.053	5.16687E-001	1.35309E-006	0.00000E+000	5.16600E-001	1.11522E-003	7	...........	-327.66
	267	0.0536	5.46662E-001	1.35734E-006	0.00000E+000	5.46600E-001	1.06522E-003	7	...........	-327.66
	270	0.0542	5.76700E-001	1.36759E-006	0.00000E+000	5.76600E-001	1.14022E-003	7	...........	-327.66
	272	0.0546	5.96650E-001	1.38184E-006	0.00000E+000	5.96600E-001	9.90224E-004	7	...........	-327.66
CURVE2	TABLE
	Pt	T	Vf	Im	Vu	Sig	Ach	IERange	Over	Temp
	#	s	V vs. Ref.	A	V	V	V	#	bits	deg C
	273	0.0548	5.89987E-001	2.34686E-007	0.00000E+000	5.90000E-001	1.09022E-003	7	...........	-327.66
	277	0.0556	5.50037E-001	-8.60463E-007	0.00000E+000	5.50000E-001	1.19022E-003	7	...........	-327.66
	281	0.0564	5.10075E-001	-9.49726E-007	0.00000E+000	5.10000E-001	1.09022E-003	7	...........	-327.66
	285	0.0572	4.70062E-001	-9.87731E-007	0.00000E+000	4.70000E-001	1.06522E-003	7	...........	-327.66
	289	0.058	4.29987E-001	-1.01473E-006	0.00000E+000	4.30000E-001	1.06522E-003	7	...........	-327.66
	293	0.0588	3.89962E-001	-1.03899E-006	0.00000E+000	3.90000E-001	1.09022E-003	7	...........	-327.66
	297	0.0596	3.49975E-001	-1.06299E-006	0.00000E+000	3.50000E-001	1.09022E-003	7	...........	-327.66
	301	0.0604	3.10012E-001	-1.08549E-006	0.00000E+000	3.10000E-001	9.90224E-004	7	...........	-327.66
	305	0.0612	2.70137E-001	-1.11325E-006	0.00000E+000	2.70000E-001	1.16522E-003	7	...........	-327.66
	309	0.062	2.30012E-001	-1.13900E-006	0.00000E+000	2.30000E-001	1.01522E-003	7	...........	-327.66
	313	0.0628	1.90100E-001	-1.16926E-006	0.00000E+000	1.90000E-001	1.16522E-003	7	...........	-327.66
	317	0.0636	1.50087E-001	-1.19676E-006	0.00000E+000	1.50000E-001	1.19022E-003	7	...........	-327.66
	321	0.0644	1.10125E-001	-1.22576E-006	0.00000E+000	1.10000E-001	1.16522E-003	7	...........	-327.66
	325	0.0652	7.01373E-002	-1.25402E-006	0.00000E+000	7.00000E-002	1.09022E-003	7	...........	-327.66
	329	0.066	2.99373E-002	-1.28227E-006	0.00000E+000	3.00000E-002	1.14022E-003	7	...........	-327.66
	333	0.0668	-9.78769E-003	-1.30702E-006	0.00000E+000	-1.00000E-002	1.24022E-003	7	...........	-327.66
	337	0.0676	-4.98502E-002	-1.32778E-006	0.00000E+000	-5.00000E-002	1.26522E-003	7	...........	-327.66
	341	0.0684	-8.98752E-002	-1.34928E-006	0.00000E+000	-9.00000E-002	1.09022E-003	7	...........	-327.66
	345	0.0692	-1.30000E-001	-1.36828E-006	0.00000E+000	-1.30000E-001	1.14022E-003	7	...........	-327.66
	349	0.07	-1.69950E-001	-1.38453E-006	0.00000E+000	-1.70000E-001	1.01522E-003	7	...........	-327.66
	353	0.0708	-2.09900E-001	-1.39904E-006	0.00000E+000	-2.10000E-001	1.14022E-003	7	...........	-327.66
	357	0.0716	-2.49863E-001	-1.41004E-006	0.00000E+000	-2.50000E-001	1.06522E-003	7	...........	-327.66
	361	0.0724	-2.89788E-001	-1.41329E-006	0.00000E+000	-2.90000E-001	1.06522E-003	7	...........	-327.66
	365	0.0732	-3.29963E-001	-1.42154E-006	0.00000E+000	-3.30000E-001	1.04022E-003	7	...........	-327.66
	369	0.074	-3.69700E-001	-1.42879E-006	0.00000E+000	-3.70000E-001	1.19022E-003	7	...........	-327.66
	373	0.0748	-4.09800E-001	-1.43254E-006	0.00000E+000	-4.10000E-001	1.16522E-003	7	...........	-327.66
	377	0.0756	-4.49675E-001	-1.43854E-006	0.00000E+000	-4.50000E-001	1.11522E-003	7	...........	-327.66
	381	0.0764	-4.89913E-001	-1.43279E-006	0.00000E+000	-4.90000E-001	9.90224E-004	7	...........	-327.66
	385	0.0772	-5.29875E-001	-1.43204E-006	0.00000E+000	-5.30000E-001	1.09022E-003	7	...........	-327.66
	389	0.078	-5.69875E-001	-1.44229E-006	0.00000E+000	-5.70000E-001	1.09022E-003	7	...........	-327.66
	393	0.0788	-6.09863E-001	-1.45854E-006	0.00000E+000	-6.10000E-001	1.01522E-003	7	...........	-327.66
	397	0.0796	-6.49738E-001	-1.47980E-006	0.00000E+000	-6.50000E-001	1.06522E-003	7	...........	-327.66
	401	0.0804	-6.89750E-001	-1.49605E-006	0.00000E+000	-6.90000E-001	1.11522E-003	7	...........	-327.66
	405	0.0812	-7.29900E-001	-1.50980E-006	0.00000E+000	-7.30000E-001	1.01522E-003	7	...........	-327.66
	409	0.082	-7.69938E-001	-1.50830E-006	0.00000E+000	-7.70000E-001	1.01522E-003	7	...........	-327.66
	413	0.0828	-8.09813E-001	-1.46080E-006	0.00000E+000	-8.10000E-001	1.11522E-003	7	...........	-327.66
	417	0.0836	-8.49838E-001	-1.27527E-006	0.00000E+000	-8.50000E-001	1.11522E-003	7	...........	-327.66
	421	0.0844	-8.89775E-001	-9.33723E-007	0.00000E+000	-8.90000E-001	9.90224E-004	7	...........	-327.66
	425	0.0852	-8.69863E-001	9.94175E-008	0.00000E+000	-8.70000E-001	1.09022E-003	7	...........	-327.66
	429	0.086	-8.29750E-001	6.30240E-007	0.00000E+000	-8.30000E-001	1.04022E-003	7	...........	-327.66
	433	0.0868	-7.89838E-001	9.75287E-007	0.00000E+000	-7.90000E-001	1.01522E-003	7	...........	-327.66
	437	0.0876	-7.49700E-001	1.14281E-006	0.00000E+000	-7.50000E-001	9.65224E-004	7	...........	-327.66
	441	0.0884	-7.09750E-001	1.19882E-006	0.00000E+000	-7.10000E-001	1.11522E-003	7	...........	-327.66
	445	0.0892	-6.69750E-001	1.21557E-006	0.00000E+000	-6.70000E-001	1.14022E-003	7	...........	-327.66
	449	0.09	-6.29713E-001	1.23032E-006	0.00000E+000	-6.30000E-001	1.04022E-003	7	...........	-327.66
	453	0.0908	-5.89900E-001	1.24132E-006	0.00000E+000	-5.90000E-001	1.14022E-003	7	...........	-327.66
	457	0.0916	-5.49750E-001	1.24357E-006	0.00000E+000	-5.50000E-001	1.04022E-003	7	...........	-327.66
	461	0.0924	-5.09850E-001	1.24857E-006	0.00000E+000	-5.10000E-001	9.90224E-004	7	...........	-327.66
	465	0.0932	-4.69800E-001	1.25758E-006	0.00000E+000	-4.70000E-001	1.09022E-003	7	...........	-327.66
	469	0.094	-4.29875E-001	1.27758E-006	0.00000E+000	-4.30000E-001	1.21522E-003	7	...........	-327.66
	473	0.0948	-3.89838E-001	1.30383E-006	0.00000E+000	-3.90000E-001	1.04022E-003	7	...........	-327.66
	477	0.0956	-3.49863E-001	1.33334E-006	0.00000E+000	-3.50000E-001	1.04022E-003	7	...........	-327.66
	481	0.0964	-3.09813E-001	1.36059E-006	0.00000E+000	-3.10000E-001	1.14022E-003	7	...........	-327.66
	485	0.0972	-2.69850E-001	1.37984E-006	0.00000E+000	-2.70000E-001	1.06522E-003	7	...........	-327.66
	489	0.098	-2.29800E-001	1.39609E-006	0.00000E+000	-2.30000E-001	1.06522E-003	7	...........	-327.66
[...]
	649	0.13	-1.69850E-001	-1.38178E-006	0.00000E+000	-1.70000E-001	1.11522E-003	7	...........	-327.66
	653	0.1308	-2.09925E-001	-1.39379E-006	0.00000E+000	-2.10000E-001	1.16522E-003	7	...........	-327.66
	657	0.1316	-2.49950E-001	-1.40379E-006	0.00000E+000	-2.50000E-001	9.40224E-004	7	...........	-327.66
	661	0.1324	-2.89900E-001	-1.41254E-006	0.00000E+000	-2.90000E-001	1.11522E-003	7	...........	-327.66
	665	0.1332	-3.29950E-001	-1.41079E-006	0.00000E+000	-3.30000E-001	1.06522E-003	7	...........	-327.66
	669	0.134	-3.69788E-001	-1.41929E-006	0.00000E+000	-3.70000E-001	1.09022E-003	7	...........	-327.66
	673	0.1348	-4.09800E-001	-1.42179E-006	0.00000E+000	-4.10000E-001	1.09022E-003	7	...........	-327.66
	677	0.1356	-4.49763E-001	-1.42304E-006	0.00000E+000	-4.50000E-001	1.19022E-003	7	...........	-327.66
	681	0.1364	-4.89850E-001	-1.42154E-006	0.00000E+000	-4.90000E-001	1.04022E-003	7	...........	-327.66
	685	0.1372	-5.29850E-001	-1.41629E-006	0.00000E+000	-5.30000E-001	1.16522E-003	7	...........	-327.66
	689	0.138	-5.69813E-001	-1.42579E-006	0.00000E+000	-5.70000E-001	1.04022E-003	7	...........	-327.66
	693	0.1388	-6.09888E-001	-1.44029E-006	0.00000E+000	-6.10000E-001	1.14022E-003	7	...........	-327.66
	697	0.1396	-6.49738E-001	-1.46130E-006	0.00000E+000	-6.50000E-001	1.16522E-003	7	...........	-327.66
	701	0.1404	-6.89688E-001	-1.47605E-006	0.00000E+000	-6.90000E-001	1.06522E-003	7	...........	-327.66
	705	0.1412	-7.29813E-001	-1.49155E-006	0.00000E+000	-7.30000E-001	1.16522E-003	7	...........	-327.66
	709	0.142	-7.69838E-001	-1.49380E-006	0.00000E+000	-7.70000E-001	1.19022E-003	7	...........	-327.66
	713	0.1428	-8.09713E-001	-1.44429E-006	0.00000E+000	-8.10000E-001	1.16522E-003	7	...........	-327.66
	717	0.1436	-8.49913E-001	-1.25877E-006	0.00000E+000	-8.50000E-001	9.90224E-004	7	...........	-327.66
	721	0.1444	-8.89813E-001	-9.20972E-007	0.00000E+000	-8.90000E-001	1.04022E-003	7	...........	-327.66
	725	0.1452	-8.69813E-001	1.10919E-007	0.00000E+000	-8.70000E-001	1.11522E-003	7	...........	-327.66
	729	0.146	-8.29713E-001	6.41491E-007	0.00000E+000	-8.30000E-001	1.24022E-003	7	...........	-327.66
	733	0.1468	-7.89738E-001	9.80287E-007	0.00000E+000	-7.90000E-001	1.11522E-003	7	...........	-327.66
	737	0.1476	-7.49725E-001	1.14831E-006	0.00000E+000	-7.50000E-001	1.01522E-003	7	...........	-327.66
	741	0.1484	-7.09838E-001	1.20132E-006	0.00000E+000	-7.10000E-001	1.24022E-003	7	...........	-327.66
	745	0.1492	-6.69725E-001	1.21732E-006	0.00000E+000	-6.70000E-001	1.16522E-003	7	...........	-327.66
	749	0.15	-6.29700E-001	1.22682E-006	0.00000E+000	-6.30000E-001	1.11522E-003	7	...........	-327.66
	753	0.1508	-5.89763E-001	1.23807E-006	0.00000E+000	-5.90000E-001	1.11522E-003	7	...........	-327.66
	757	0.1516	-5.49925E-001	1.24282E-006	0.00000E+000	-5.50000E-001	9.40224E-004	7	...........	-327.66
	761	0.1524	-5.09725E-001	1.24657E-006	0.00000E+000	-5.10000E-001	1.29022E-003	7	...........	-327.66
	765	0.1532	-4.69800E-001	1.25282E-006	0.00000E+000	-4.70000E-001	1.14022E-003	7	...........	-327.66
	769	0.154	-4.29763E-001	1.27233E-006	0.00000E+000	-4.30000E-001	1.01522E-003	7	...........	-327.66
	773	0.1548	-3.89875E-001	1.30033E-006	0.00000E+000	-3.90000E-001	1.06522E-003	7	...........	-327.66
	777	0.1556	-3.49788E-001	1.33059E-006	0.00000E+000	-3.50000E-001	1.06522E-003	7	...........	-327.66
	781	0.1564	-3.09813E-001	1.35334E-006	0.00000E+000	-3.10000E-001	1.11522E-003	7	...........	-327.66
	785	0.1572	-2.69838E-001	1.37709E-006	0.00000E+000	-2.70000E-001	9.90224E-004	7	...........	-327.66
	789	0.158	-2.29825E-001	1.39109E-006	0.00000E+000	-2.30000E-001	1.11522E-003	7	...........	-327.66
	793	0.1588	-1.89925E-001	1.40360E-006	0.00000E+000	-1.90000E-001	1.11522E-003	7	...........	-327.66
	797	0.1596	-1.49925E-001	1.41085E-006	0.00000E+000	-1.50000E-001	1.09022E-003	7	...........	-327.66
	801	0.1604	-1.09900E-001	1.41610E-006	0.00000E+000	-1.10000E-001	1.11522E-003	7	...........	-327.66
	805	0.1612	-6.98377E-002	1.41635E-006	0.00000E+000	-7.00000E-002	1.11522E-003	7	...........	-327.66
	809	0.162	-2.98002E-002	1.41485E-006	0.00000E+000	-3.00000E-002	1.09022E-003	7	...........	-327.66
	813	0.1628	1.01373E-002	1.40735E-006	0.00000E+000	9.99999E-003	1.14022E-003	7	...........	-327.66
	817	0.1636	5.00623E-002	1.39859E-006	0.00000E+000	5.00000E-002	1.16522E-003	7	...........	-327.66
	821	0.1644	9.02248E-002	1.39084E-006	0.00000E+000	9.00000E-002	1.14022E-003	7	...........	-327.66
	825	0.1652	1.30250E-001	1.38209E-006	0.00000E+000	1.30000E-001	1.16522E-003	7	...........	-327.66
	829	0.166	1.70075E-001	1.37759E-006	0.00000E+000	1.70000E-001	1.24022E-003	7	...........	-327.66
	833	0.1668	2.10062E-001	1.37459E-006	0.00000E+000	2.10000E-001	1.19022E-003	7	...........	-327.66
	837	0.1676	2.50087E-001	1.37209E-006	0.00000E+000	2.50000E-001	1.09022E-003	7	...........	-327.66
	841	0.1684	2.90037E-001	1.36709E-006	0.00000E+000	2.90000E-001	1.19022E-003	7	...........	-327.66
	845	0.1692	3.30087E-001	1.36784E-006	0.00000E+000	3.30000E-001	1.01522E-003	7	...........	-327.66
	849	0.17	3.70125E-001	1.36959E-006	0.00000E+000	3.70000E-001	1.29022E-003	7	...........	-327.66
	853	0.1708	4.10150E-001	1.36809E-006	0.00000E+000	4.10000E-001	1.09022E-003	7	...........	-327.66
	857	0.1716	4.50150E-001	1.36684E-006	0.00000E+000	4.50000E-001	1.06522E-003	7	...........	-327.66
	861	0.1724	4.90187E-001	1.37134E-006	0.00000E+000	4.90000E-001	1.09022E-003	7	...........	-327.66
	865	0.1732	5.30062E-001	1.37409E-006	0.00000E+000	5.30000E-001	1.01522E-003	7	...........	-327.66
	869	0.174	5.70037E-001	1.38284E-006	0.00000E+000	5.70000E-001	1.14022E-003	7	...........	-327.66
	872	0.1746	6.00075E-001	1.39659E-006	0.00000E+000	6.00000E-001	1.11522E-003	7	...........	-327.66
CURVE4	TABLE
	Pt	T	Vf	Im	Vu	Sig	Ach	IERange	Over	Temp
	#	s	V vs. Ref.	A	V	V	V	#	bits	deg C
	873	0.1748	5.89950E-001	9.90525E-009	0.00000E+000	5.90000E-001	1.09022E-003	7	...........	-327.66
	874	0.175	5.79987E-001	-5.47171E-007	0.00000E+000	5.80000E-001	1.01522E-003	7	...........	-327.66
	875	0.1752	5.70050E-001	-7.33196E-007	0.00000E+000	5.70000E-001	1.09022E-003	7	...........	-327.66
	876	0.1754	5.59962E-001	-8.19708E-007	0.00000E+000	5.60000E-001	1.06522E-003	7	...........	-327.66
	877	0.1756	5.50100E-001	-8.65714E-007	0.00000E+000	5.50000E-001	1.16522E-003	7	...........	-327.66
	878	0.1758	5.40000E-001	-8.98969E-007	0.00000E+000	5.40000E-001	9.65224E-004	7	...........	-327.66
	879	0.176	5.30087E-001	-9.20972E-007	0.00000E+000	5.30000E-001	9.90224E-004	7	...........	-327.66
	880	0.1762	5.20025E-001	-9.40474E-007	0.00000E+000	5.20000E-001	9.90224E-004	7	...........	-327.66
	881	0.1764	5.10200E-001	-9.53726E-007	0.00000E+000	5.10000E-001	1.11522E-003	7	...........	-327.66
	882	0.1766	5.00050E-001	-9.65728E-007	0.00000E+000	5.00000E-001	1.01522E-003	7	...........	-327.66
	883	0.1768	4.90025E-001	-9.78479E-007	0.00000E+000	4.90000E-001	1.06522E-003	7	...........	-327.66
	884	0.177	4.80025E-001	-9.86981E-007	0.00000E+000	4.80000E-001	1.09022E-003	7	...........	-327.66
	885	0.1772	4.69962E-001	-9.92981E-007	0.00000E+000	4.70000E-001	1.09022E-003	7	...........	-327.66
	886	0.1774	4.59962E-001	-1.00473E-006	0.00000E+000	4.60000E-001	1.11522E-003	7	...........	-327.66
	887	0.1776	4.50225E-001	-1.01098E-006	0.00000E+000	4.50000E-001	1.14022E-003	7	...........	-327.66
	888	0.1778	4.39937E-001	-1.01573E-006	0.00000E+000	4.40000E-001	1.19022E-003	7	...........	-327.66
	889	0.178	4.30112E-001	-1.02324E-006	0.00000E+000	4.30000E-001	1.11522E-003	7	...........	-327.66
	890	0.1782	4.20037E-001	-1.02899E-006	0.00000E+000	4.20000E-001	1.01522E-003	7	...........	-327.66
	891	0.1784	4.10037E-001	-1.03599E-006	0.00000E+000	4.10000E-001	1.11522E-003	7	...........	-327.66
	892	0.1786	3.99950E-001	-1.04099E-006	0.00000E+000	4.00000E-001	1.11522E-003	7	...........	-327.66
	893	0.1788	3.90000E-001	-1.04724E-006	0.00000E+000	3.90000E-001	9.40224E-004	7	...........	-327.66
	894	0.179	3.79975E-001	-1.05324E-006	0.00000E+000	3.80000E-001	9.65224E-004	7	...........	-327.66
	895	0.1792	3.70087E-001	-1.05949E-006	0.00000E+000	3.70000E-001	1.01522E-003	7	...........	-327.66
	896	0.1794	3.60025E-001	-1.06449E-006	0.00000E+000	3.60000E-001	1.01522E-003	7	...........	-327.66
	897	0.1796	3.50075E-001	-1.07499E-006	0.00000E+000	3.50000E-001	1.06522E-003	7	...........	-327.66
	898	0.1798	3.40025E-001	-1.07724E-006	0.00000E+000	3.40000E-001	1.14022E-003	7	...........	-327.66
	899	0.18	3.30075E-001	-1.08449E-006	0.00000E+000	3.30000E-001	1.01522E-003	7	...........	-327.66
	900	0.1802	3.20000E-001	-1.09450E-006	0.00000E+000	3.20000E-001	1.04022E-003	7	...........	-327.66