File: Test_Data_Files/20250509_IF0011_IIA42_PBSair_E02_E_CV50000_PEDOT.DTA
EXPLAIN
TAG	CV
TITLE	LABEL	CV50000	Test Identifier
DATE	LABEL	5/9/2025	Date
TIME	LABEL	14:37:01	Time
NOTES	NOTES	1	Notes...

PSTAT	PSTAT	REF600P-43058	Potentiostat
VINIT	POTEN	0.00000E+000	T	Initial E (V)
VLIMIT1	POTEN	-9.00000E-001	F	Scan Limit 1 (V)
VLIMIT2	POTEN	6.00000E-001	F	Scan Limit 2 (V)
VFINAL	POTEN	0.00000E+000	T	Final E (V)
SCANRATE	QUANT	4.99999E+004	Scan Rate (mV/s)
STEPSIZE	QUANT	1.00000E+001	Step Size (mV)
CYCLES	IQUANT	3	Cycles (#)
IMODE	SELECTOR	1	I/E Range Mode
IRANGE	QUANT	1.00000E-002	Max Current (mA)
AREA	QUANT	1.00000E+000	Sample Area (cm^2)
EQDELAY	QUANT	5.00000E+000	Equil. Time (s)
IRCOMP	SELECTOR	0	IRComp
PFCOR	QUANT	5.00000E+001	PF Corr. (ohm)
SAMPLINGMODE	SELECTOR	2	Sampling Mode
EOC	QUANT	0.1869809	Open Circuit (V)
ELECTRODETYPE	SELECTOR	0	Electrode Type
STRIPPING	TOGGLE	F	Used for Stripping
SEQUENCER	TOGGLE	TRUE	Run as Sequence
PSTATMODEL	IQUANT	7	Pstat Model
PSTATSECTION	LABEL	REF600P-43058	Pstat Section
PSTATSERIALNO	LABEL	43058	Pstat Serial Number
CTRLMODE	IQUANT	1	Control Mode
ELECTROMETER	IQUANT	0	RE=0 or CS=1
IESTAB	IQUANT	2	I/E Stability
CASPEED	IQUANT	4	Control Amp Speed
CONVENTION	IQUANT	1	Current Convention
ICHRANGE	IQUANT	2	Ich Range
ICHRANGEMODE	TOGGLE	F	Ich Auto Range
ICHOFFSETENABLE	TOGGLE	F	Ich Offset Enable
ICHOFFSET	QUANT	0	Ich Offset (V)
ICHFILTER	IQUANT	1	Ich Filter
VCHRANGE	IQUANT	2	Vch Range
VCHRANGEMODE	TOGGLE	F	Vch Auto Range
VCHOFFSETENABLE	TOGGLE	F	Vch Offset Enable
VCHOFFSET	QUANT	0	Vch Offset (V)
VCHFILTER	IQUANT	1	Vch Filter
ACHRANGE	IQUANT	2	Ach Range
ACHOFFSETENABLE	TOGGLE	F	Ach Offset Enable
ACHOFFSET	QUANT	0	Ach Offset (V)
ACHFILTER	IQUANT	1	Ach Filter
IERANGELOWERLIMIT	IQUANT	1	I/E Range Lower Limit
IERANGEMODE	TOGGLE	F	I/E AutoRange
IERANGE	IQUANT	7	I/E Range
POSFEEDENABLE	TOGGLE	F	Positive Feedback IR Comp
POSFEEDRESISTANCE	QUANT	0	Positive Feedback Resistance (ohm)
ACHSELECT	IQUANT	4	Ach Select
SENSECABLEID	IQUANT	7	Sense Cable ID
PWRCABLEID	IQUANT	7	Power Cable ID
DCCALDATE	LABEL	5/8/2025	DC Calibration Date
ACCALDATE	LABEL	5/8/2025	AC Calibration Date
THERMOSELECT	IQUANT	1	Thermo Select
FRAMEWORKVERSION	LABEL	7.10.4	Framework Version
INSTRUMENTVERSION	LABEL	5.01	Instrument Version
COMMVERSION	LABEL	5.10	Communications Version
CPUPLDVERSION	LABEL	6.00	CPU PLD Version
CTRLPLDVERSION	LABEL	3.21	CTRL PLD Version
PSTATPLDVERSION	LABEL	0.00	PSTAT PLD Version
CURVE1	TABLE
	Pt	T	Vf	Im	Vu	Sig	Ach	IERange	Over	Temp
	#	s	V vs. Ref.	A	V	V	V	#	bits	deg C
	0	0.0002	1.87137E-001	1.09054E-008	0.00000E+000	1.87000E-001	1.06522E-003	7	...........	-327.66
	3	0.0008	1.57087E-001	-3.22929E-006	0.00000E+000	1.57000E-001	9.40224E-004	7	...........	-327.66
	6	0.0014	1.27137E-001	-5.31657E-006	0.00000E+000	1.27000E-001	1.14022E-003	7	...........	-327.66
	9	0.002	9.71123E-002	-6.91679E-006	0.00000E+000	9.70000E-002	1.11522E-003	7	...........	-327.66
	12	0.0026	6.71998E-002	-8.27272E-006	0.00000E+000	6.70000E-002	1.19022E-003	7	...........	-327.66
	15	0.0032	3.71373E-002	-9.48589E-006	0.00000E+000	3.70000E-002	1.01522E-003	7	...........	-327.66
	18	0.0038	7.16231E-003	-1.06043E-005	0.00000E+000	6.99998E-003	1.11522E-003	7	...........	-327.66
	21	0.0044	-2.28752E-002	-1.16674E-005	0.00000E+000	-2.30000E-002	1.04022E-003	7	...........	-327.66
	24	0.005	-5.28877E-002	-1.26891E-005	0.00000E+000	-5.30000E-002	1.06522E-003	7	...........	-327.66
	27	0.0056	-8.28002E-002	-1.36777E-005	0.00000E+000	-8.30000E-002	1.11522E-003	7	...........	-327.66
	30	0.0062	-1.12813E-001	-1.46488E-005	0.00000E+000	-1.13000E-001	1.14022E-003	7	...........	-327.66
	33	0.0068	-1.42813E-001	-1.56055E-005	0.00000E+000	-1.43000E-001	1.06522E-003	7	...........	-327.66
	36	0.0074	-1.72863E-001	-1.65621E-005	0.00000E+000	-1.73000E-001	1.09022E-003	7	...........	-327.66
	39	0.008	-2.02888E-001	-1.75110E-005	0.00000E+000	-2.03000E-001	1.09022E-003	7	...........	-327.66
	42	0.0086	-2.32838E-001	-1.84624E-005	0.00000E+000	-2.33000E-001	1.11522E-003	7	...........	-327.66
	45	0.0092	-2.62788E-001	-1.94120E-005	0.00000E+000	-2.63000E-001	1.09022E-003	7	...........	-327.66
	48	0.0098	-2.92850E-001	-2.03601E-005	0.00000E+000	-2.93000E-001	1.19022E-003	7	...........	-327.66
	51	0.0104	-3.22725E-001	-2.13188E-005	0.00000E+000	-3.23000E-001	1.09022E-003	7	...........	-327.66
	54	0.011	-3.52838E-001	-2.22756E-005	0.00000E+000	-3.53000E-001	1.14022E-003	7	...........	-327.66
	57	0.0116	-3.82813E-001	-2.32290E-005	0.00000E+000	-3.83000E-001	1.14022E-003	7	...........	-327.66
	60	0.0122	-4.12738E-001	-2.41834E-005	0.00000E+000	-4.13000E-001	1.11522E-003	7	...........	-327.66
	63	0.0128	-4.42713E-001	-2.51358E-005	0.00000E+000	-4.43000E-001	1.11522E-003	7	...........	-327.66
	66	0.0134	-4.72650E-001	-2.60812E-005	0.00000E+000	-4.73000E-001	1.06522E-003	7	...........	-327.66
	69	0.014	-5.02750E-001	-2.70240E-005	0.00000E+000	-5.03000E-001	1.11522E-003	7	...........	-327.66
	72	0.0146	-5.32863E-001	-2.79517E-005	0.00000E+000	-5.33000E-001	1.21522E-003	7	...........	-327.66
	75	0.0152	-5.62713E-001	-2.88648E-005	0.00000E+000	-5.63000E-001	1.06522E-003	7	...........	-327.66
	78	0.0158	-5.92800E-001	-2.97572E-005	0.00000E+000	-5.93000E-001	1.16522E-003	7	...........	-327.66
	81	0.0164	-6.22688E-001	-3.06315E-005	0.00000E+000	-6.23000E-001	1.11522E-003	7	...........	-327.66
	84	0.017	-6.52738E-001	-3.14676E-005	0.00000E+000	-6.53000E-001	1.11522E-003	7	...........	-327.66
	87	0.0176	-6.82713E-001	-3.22657E-005	0.00000E+000	-6.83000E-001	1.11522E-003	7	...........	-327.66
	90	0.0182	-7.12763E-001	-3.30136E-005	0.00000E+000	-7.13000E-001	1.06522E-003	7	...........	-327.66
	93	0.0188	-7.42625E-001	-3.36959E-005	0.00000E+000	-7.43000E-001	1.04022E-003	7	...........	-327.66
	96	0.0194	-7.72700E-001	-3.42953E-005	0.00000E+000	-7.73000E-001	1.06522E-003	7	...........	-327.66
	99	0.02	-8.02625E-001	-3.47893E-005	0.00000E+000	-8.03000E-001	1.21522E-003	7	...........	-327.66
	102	0.0206	-8.32538E-001	-3.51474E-005	0.00000E+000	-8.33000E-001	1.24022E-003	7	...........	-327.66
	105	0.0212	-8.62625E-001	-3.53307E-005	0.00000E+000	-8.63000E-001	1.19022E-003	7	...........	-327.66
	108	0.0218	-8.92788E-001	-3.53117E-005	0.00000E+000	-8.93000E-001	1.11522E-003	7	...........	-327.66
	111	0.0224	-8.82638E-001	-3.11663E-005	0.00000E+000	-8.83000E-001	1.09022E-003	7	...........	-327.66
	114	0.023	-8.52825E-001	-2.67397E-005	0.00000E+000	-8.53000E-001	1.06522E-003	7	...........	-327.66
	117	0.0236	-8.22713E-001	-2.32613E-005	0.00000E+000	-8.23000E-001	1.24022E-003	7	...........	-327.66
	120	0.0242	-7.92825E-001	-2.01999E-005	0.00000E+000	-7.93000E-001	1.01522E-003	7	...........	-327.66
	123	0.0248	-7.62838E-001	-1.73702E-005	0.00000E+000	-7.63000E-001	1.29022E-003	7	...........	-327.66
	126	0.0254	-7.32700E-001	-1.46878E-005	0.00000E+000	-7.33000E-001	1.04022E-003	7	...........	-327.66
	129	0.026	-7.02863E-001	-1.21255E-005	0.00000E+000	-7.03000E-001	9.90224E-004	7	...........	-327.66
	132	0.0266	-6.72838E-001	-9.64791E-006	0.00000E+000	-6.73000E-001	1.04022E-003	7	...........	-327.66
	135	0.0272	-6.42750E-001	-7.25584E-006	0.00000E+000	-6.43000E-001	1.14022E-003	7	...........	-327.66
	138	0.0278	-6.12888E-001	-4.94577E-006	0.00000E+000	-6.13000E-001	1.04022E-003	7	...........	-327.66
	141	0.0284	-5.82900E-001	-2.71822E-006	0.00000E+000	-5.83000E-001	1.19022E-003	7	...........	-327.66
	144	0.029	-5.52800E-001	-5.75925E-007	0.00000E+000	-5.53000E-001	1.19022E-003	7	...........	-327.66
	147	0.0296	-5.22750E-001	1.48736E-006	0.00000E+000	-5.23000E-001	1.14022E-003	7	...........	-327.66
	150	0.0302	-4.92913E-001	3.46738E-006	0.00000E+000	-4.93000E-001	9.90224E-004	7	...........	-327.66
	153	0.0308	-4.62875E-001	5.36964E-006	0.00000E+000	-4.63000E-001	1.24022E-003	7	...........	-327.66
	156	0.0314	-4.32788E-001	7.19213E-006	0.00000E+000	-4.33000E-001	1.04022E-003	7	...........	-327.66
	159	0.032	-4.02950E-001	8.93937E-006	0.00000E+000	-4.03000E-001	1.04022E-003	7	...........	-327.66
	162	0.0326	-3.73000E-001	1.06096E-005	0.00000E+000	-3.73000E-001	1.04022E-003	7	...........	-327.66
	165	0.0332	-3.42900E-001	1.22028E-005	0.00000E+000	-3.43000E-001	1.16522E-003	7	...........	-327.66
	168	0.0338	-3.12913E-001	1.37188E-005	0.00000E+000	-3.13000E-001	1.16522E-003	7	...........	-327.66
	171	0.0344	-2.82888E-001	1.51537E-005	0.00000E+000	-2.83000E-001	1.04022E-003	7	...........	-327.66
	174	0.035	-2.52938E-001	1.65112E-005	0.00000E+000	-2.53000E-001	1.04022E-003	7	...........	-327.66
	177	0.0356	-2.22975E-001	1.77801E-005	0.00000E+000	-2.23000E-001	1.09022E-003	7	...........	-327.66
	180	0.0362	-1.92863E-001	1.89662E-005	0.00000E+000	-1.93000E-001	9.90224E-004	7	...........	-327.66
	183	0.0368	-1.62950E-001	2.00716E-005	0.00000E+000	-1.63000E-001	1.01522E-003	7	...........	-327.66
	186	0.0374	-1.32913E-001	2.10923E-005	0.00000E+000	-1.33000E-001	1.29022E-003	7	...........	-327.66
	189	0.038	-1.03075E-001	2.20334E-005	0.00000E+000	-1.03000E-001	1.04022E-003	7	...........	-327.66
	192	0.0386	-7.29627E-002	2.28943E-005	0.00000E+000	-7.30000E-002	1.26522E-003	7	...........	-327.66
	195	0.0392	-4.30377E-002	2.36889E-005	0.00000E+000	-4.30000E-002	1.04022E-003	7	...........	-327.66
	198	0.0398	-1.29252E-002	2.44115E-005	0.00000E+000	-1.30000E-002	1.09022E-003	7	...........	-327.66
	201	0.0404	1.70373E-002	2.50726E-005	0.00000E+000	1.70000E-002	1.24022E-003	7	...........	-327.66
	204	0.041	4.71498E-002	2.56727E-005	0.00000E+000	4.70000E-002	1.11522E-003	7	...........	-327.66
	207	0.0416	7.70748E-002	2.62222E-005	0.00000E+000	7.70000E-002	1.11522E-003	7	...........	-327.66
	210	0.0422	1.07087E-001	2.67065E-005	0.00000E+000	1.07000E-001	1.14022E-003	7	...........	-327.66
	213	0.0428	1.36975E-001	2.71218E-005	0.00000E+000	1.37000E-001	1.14022E-003	7	...........	-327.66
	216	0.0434	1.67050E-001	2.74699E-005	0.00000E+000	1.67000E-001	1.06522E-003	7	...........	-327.66
	219	0.044	1.97037E-001	2.77484E-005	0.00000E+000	1.97000E-001	1.06522E-003	7	...........	-327.66
	222	0.0446	2.27012E-001	2.79647E-005	0.00000E+000	2.27000E-001	1.16522E-003	7	...........	-327.66
	225	0.0452	2.56825E-001	2.81122E-005	0.00000E+000	2.57000E-001	1.09022E-003	7	...........	-327.66
	228	0.0458	2.86950E-001	2.81907E-005	0.00000E+000	2.87000E-001	1.21522E-003	7	...........	-327.66
	231	0.0464	3.16962E-001	2.82045E-005	0.00000E+000	3.17000E-001	1.06522E-003	7	...........	-327.66
	234	0.047	3.47100E-001	2.81750E-005	0.00000E+000	3.47000E-001	1.04022E-003	7	...........	-327.66
	237	0.0476	3.76900E-001	2.81047E-005	0.00000E+000	3.77000E-001	1.16522E-003	7	...........	-327.66
	240	0.0482	4.07150E-001	2.80162E-005	0.00000E+000	4.07000E-001	1.14022E-003	7	...........	-327.66
	243	0.0488	4.36912E-001	2.79190E-005	0.00000E+000	4.37000E-001	1.21522E-003	7	...........	-327.66
	246	0.0494	4.66875E-001	2.78222E-005	0.00000E+000	4.67000E-001	1.11522E-003	7	...........	-327.66
	249	0.05	4.96887E-001	2.77282E-005	0.00000E+000	4.97000E-001	1.09022E-003	7	...........	-327.66
	252	0.0506	5.27087E-001	2.76502E-005	0.00000E+000	5.27000E-001	1.14022E-003	7	...........	-327.66
	255	0.0512	5.56962E-001	2.75954E-005	0.00000E+000	5.57000E-001	1.11522E-003	7	...........	-327.66
	258	0.0518	5.87012E-001	2.75614E-005	0.00000E+000	5.87000E-001	1.09022E-003	7	...........	-327.66
	259	0.052	5.96837E-001	2.75637E-005	0.00000E+000	5.97000E-001	1.01522E-003	7	...........	-327.66
CURVE2	TABLE
	Pt	T	Vf	Im	Vu	Sig	Ach	IERange	Over	Temp
	#	s	V vs. Ref.	A	V	V	V	#	bits	deg C
	260	0.0522	5.89937E-001	2.54721E-005	0.00000E+000	5.90000E-001	1.14022E-003	7	...........	-327.66
	264	0.053	5.49937E-001	1.82574E-005	0.00000E+000	5.50000E-001	1.06522E-003	7	...........	-327.66
	268	0.0538	5.09912E-001	1.37743E-005	0.00000E+000	5.10000E-001	1.01522E-003	7	...........	-327.66
	272	0.0546	4.70000E-001	1.03236E-005	0.00000E+000	4.70000E-001	1.11522E-003	7	...........	-327.66
	276	0.0554	4.30075E-001	7.43567E-006	0.00000E+000	4.30000E-001	1.01522E-003	7	...........	-327.66
	280	0.0562	3.89925E-001	4.90807E-006	0.00000E+000	3.90000E-001	1.06522E-003	7	...........	-327.66
	284	0.057	3.50062E-001	2.63976E-006	0.00000E+000	3.50000E-001	1.11522E-003	7	...........	-327.66
	288	0.0578	3.10037E-001	5.64731E-007	0.00000E+000	3.10000E-001	1.19022E-003	7	...........	-327.66
	292	0.0586	2.70137E-001	-1.35528E-006	0.00000E+000	2.70000E-001	9.15224E-004	7	...........	-327.66
	296	0.0594	2.30037E-001	-3.15628E-006	0.00000E+000	2.30000E-001	1.19022E-003	7	...........	-327.66
	300	0.0602	1.90162E-001	-4.85701E-006	0.00000E+000	1.90000E-001	1.24022E-003	7	...........	-327.66
	304	0.061	1.50087E-001	-6.47923E-006	0.00000E+000	1.50000E-001	1.06522E-003	7	...........	-327.66
	308	0.0618	1.10062E-001	-8.03094E-006	0.00000E+000	1.10000E-001	9.90224E-004	7	...........	-327.66
	312	0.0626	7.01123E-002	-9.53239E-006	0.00000E+000	7.00000E-002	1.09022E-003	7	...........	-327.66
	316	0.0634	3.00623E-002	-1.09738E-005	0.00000E+000	3.00000E-002	1.09022E-003	7	...........	-327.66
	320	0.0642	-9.72519E-003	-1.23708E-005	0.00000E+000	-1.00000E-002	1.16522E-003	7	...........	-327.66
	324	0.065	-4.99877E-002	-1.37267E-005	0.00000E+000	-5.00000E-002	1.14022E-003	7	...........	-327.66
	328	0.0658	-8.99127E-002	-1.50441E-005	0.00000E+000	-9.00000E-002	1.04022E-003	7	...........	-327.66
	332	0.0666	-1.29838E-001	-1.63231E-005	0.00000E+000	-1.30000E-001	1.06522E-003	7	...........	-327.66
	336	0.0674	-1.69813E-001	-1.75832E-005	0.00000E+000	-1.70000E-001	1.01522E-003	7	...........	-327.66
	340	0.0682	-2.09750E-001	-1.88352E-005	0.00000E+000	-2.10000E-001	1.14022E-003	7	...........	-327.66
	344	0.069	-2.49850E-001	-2.00771E-005	0.00000E+000	-2.50000E-001	1.11522E-003	7	...........	-327.66
	348	0.0698	-2.89813E-001	-2.13123E-005	0.00000E+000	-2.90000E-001	9.90224E-004	7	...........	-327.66
	352	0.0706	-3.29788E-001	-2.25457E-005	0.00000E+000	-3.30000E-001	1.11522E-003	7	...........	-327.66
	356	0.0714	-3.69788E-001	-2.37668E-005	0.00000E+000	-3.70000E-001	1.04022E-003	7	...........	-327.66
	360	0.0722	-4.09713E-001	-2.49725E-005	0.00000E+000	-4.10000E-001	1.11522E-003	7	...........	-327.66
	364	0.073	-4.49750E-001	-2.61619E-005	0.00000E+000	-4.50000E-001	1.21522E-003	7	...........	-327.66
	368	0.0738	-4.89725E-001	-2.73308E-005	0.00000E+000	-4.90000E-001	9.40224E-004	7	...........	-327.66
	372	0.0746	-5.29738E-001	-2.84710E-005	0.00000E+000	-5.30000E-001	1.16522E-003	7	...........	-327.66
	376	0.0754	-5.69688E-001	-2.95759E-005	0.00000E+000	-5.70000E-001	1.21522E-003	7	...........	-327.66
	380	0.0762	-6.09713E-001	-3.06355E-005	0.00000E+000	-6.10000E-001	9.65224E-004	7	...........	-327.66
	384	0.077	-6.49688E-001	-3.16362E-005	0.00000E+000	-6.50000E-001	1.09022E-003	7	...........	-327.66
	388	0.0778	-6.89713E-001	-3.25743E-005	0.00000E+000	-6.90000E-001	1.09022E-003	7	...........	-327.66
	392	0.0786	-7.29625E-001	-3.34269E-005	0.00000E+000	-7.30000E-001	1.04022E-003	7	...........	-327.66
	396	0.0794	-7.69663E-001	-3.41673E-005	0.00000E+000	-7.70000E-001	1.14022E-003	7	...........	-327.66
	400	0.0802	-8.09575E-001	-3.47668E-005	0.00000E+000	-8.10000E-001	1.16522E-003	7	...........	-327.66
	404	0.081	-8.49713E-001	-3.51834E-005	0.00000E+000	-8.50000E-001	1.09022E-003	7	...........	-327.66
	408	0.0818	-8.89663E-001	-3.53704E-005	0.00000E+000	-8.90000E-001	1.11522E-003	7	...........	-327.66
	412	0.0826	-8.69663E-001	-2.92568E-005	0.00000E+000	-8.70000E-001	1.19022E-003	7	...........	-327.66
	416	0.0834	-8.29625E-001	-2.34543E-005	0.00000E+000	-8.30000E-001	9.90224E-004	7	...........	-327.66
	420	0.0842	-7.89750E-001	-1.87599E-005	0.00000E+000	-7.90000E-001	1.09022E-003	7	...........	-327.66
	424	0.085	-7.49663E-001	-1.45983E-005	0.00000E+000	-7.50000E-001	1.14022E-003	7	...........	-327.66
	428	0.0858	-7.09688E-001	-1.07823E-005	0.00000E+000	-7.10000E-001	1.06522E-003	7	...........	-327.66
	432	0.0866	-6.69738E-001	-7.24983E-006	0.00000E+000	-6.70000E-001	1.11522E-003	7	...........	-327.66
	436	0.0874	-6.29713E-001	-3.96139E-006	0.00000E+000	-6.30000E-001	1.19022E-003	7	...........	-327.66
	440	0.0882	-5.89738E-001	-9.03969E-007	0.00000E+000	-5.90000E-001	1.16522E-003	7	...........	-327.66
	444	0.089	-5.49800E-001	1.95367E-006	0.00000E+000	-5.50000E-001	1.09022E-003	7	...........	-327.66
	448	0.0898	-5.09813E-001	4.63904E-006	0.00000E+000	-5.10000E-001	1.14022E-003	7	...........	-327.66
	452	0.0906	-4.69825E-001	7.17938E-006	0.00000E+000	-4.70000E-001	1.14022E-003	7	...........	-327.66
	456	0.0914	-4.29813E-001	9.58921E-006	0.00000E+000	-4.30000E-001	9.90224E-004	7	...........	-327.66
	460	0.0922	-3.89813E-001	1.18703E-005	0.00000E+000	-3.90000E-001	1.29022E-003	7	...........	-327.66
	464	0.093	-3.49838E-001	1.40348E-005	0.00000E+000	-3.50000E-001	1.06522E-003	7	...........	-327.66
	468	0.0938	-3.09925E-001	1.60581E-005	0.00000E+000	-3.10000E-001	1.29022E-003	7	...........	-327.66
	472	0.0946	-2.69925E-001	1.79406E-005	0.00000E+000	-2.70000E-001	1.06522E-003	7	...........	-327.66
	476	0.0954	-2.29925E-001	1.96676E-005	0.00000E+000	-2.30000E-001	1.21522E-003	7	...........	-327.66
	480	0.0962	-1.89788E-001	2.12383E-005	0.00000E+000	-1.90000E-001	1.01522E-003	7	...........	-327.66
	484	0.097	-1.50050E-001	2.26422E-005	0.00000E+000	-1.50000E-001	1.09022E-003	7	...........	-327.66
	488	0.0978	-1.10000E-001	2.38934E-005	0.00000E+000	-1.10000E-001	9.90224E-004	7	...........	-327.66
	492	0.0986	-6.99752E-002	2.50093E-005	0.00000E+000	-7.00000E-002	8.90224E-004	7	...........	-327.66
[...]
	688	0.1378	-6.89650E-001	-3.31954E-005	0.00000E+000	-6.90000E-001	1.09022E-003	7	...........	-327.66
	692	0.1386	-7.29663E-001	-3.40010E-005	0.00000E+000	-7.30000E-001	1.09022E-003	7	...........	-327.66
	696	0.1394	-7.69663E-001	-3.47001E-005	0.00000E+000	-7.70000E-001	1.09022E-003	7	...........	-327.66
	700	0.1402	-8.09638E-001	-3.52644E-005	0.00000E+000	-8.10000E-001	1.01522E-003	7	...........	-327.66
	704	0.141	-8.49713E-001	-3.56555E-005	0.00000E+000	-8.50000E-001	1.06522E-003	7	...........	-327.66
	708	0.1418	-8.89688E-001	-3.58245E-005	0.00000E+000	-8.90000E-001	1.01522E-003	7	...........	-327.66
	712	0.1426	-8.69825E-001	-2.95719E-005	0.00000E+000	-8.70000E-001	1.21522E-003	7	...........	-327.66
	716	0.1434	-8.29575E-001	-2.35521E-005	0.00000E+000	-8.30000E-001	1.01522E-003	7	...........	-327.66
	720	0.1442	-7.89725E-001	-1.86714E-005	0.00000E+000	-7.90000E-001	1.09022E-003	7	...........	-327.66
	724	0.145	-7.49750E-001	-1.43598E-005	0.00000E+000	-7.50000E-001	1.04022E-003	7	...........	-327.66
	728	0.1458	-7.09763E-001	-1.04385E-005	0.00000E+000	-7.10000E-001	1.06522E-003	7	...........	-327.66
	732	0.1466	-6.69788E-001	-6.83603E-006	0.00000E+000	-6.70000E-001	1.11522E-003	7	...........	-327.66
	736	0.1474	-6.29638E-001	-3.51683E-006	0.00000E+000	-6.30000E-001	9.40224E-004	7	...........	-327.66
	740	0.1482	-5.89838E-001	-4.50157E-007	0.00000E+000	-5.90000E-001	1.14022E-003	7	...........	-327.66
	744	0.149	-5.49700E-001	2.40623E-006	0.00000E+000	-5.50000E-001	1.11522E-003	7	...........	-327.66
	748	0.1498	-5.09775E-001	5.09510E-006	0.00000E+000	-5.10000E-001	1.14022E-003	7	...........	-327.66
	752	0.1506	-4.69775E-001	7.63294E-006	0.00000E+000	-4.70000E-001	1.09022E-003	7	...........	-327.66
	756	0.1514	-4.29938E-001	1.00495E-005	0.00000E+000	-4.30000E-001	1.06522E-003	7	...........	-327.66
	760	0.1522	-3.89875E-001	1.23596E-005	0.00000E+000	-3.90000E-001	1.01522E-003	7	...........	-327.66
	764	0.153	-3.50000E-001	1.45376E-005	0.00000E+000	-3.50000E-001	1.11522E-003	7	...........	-327.66
	768	0.1538	-3.09900E-001	1.65887E-005	0.00000E+000	-3.10000E-001	1.29022E-003	7	...........	-327.66
	772	0.1546	-2.69938E-001	1.84902E-005	0.00000E+000	-2.70000E-001	9.90224E-004	7	...........	-327.66
	776	0.1554	-2.29963E-001	2.02334E-005	0.00000E+000	-2.30000E-001	1.21522E-003	7	...........	-327.66
	780	0.1562	-1.89813E-001	2.18146E-005	0.00000E+000	-1.90000E-001	1.29022E-003	7	...........	-327.66
	784	0.157	-1.50025E-001	2.32206E-005	0.00000E+000	-1.50000E-001	1.01522E-003	7	...........	-327.66
	788	0.1578	-1.09975E-001	2.44707E-005	0.00000E+000	-1.10000E-001	1.11522E-003	7	...........	-327.66
	792	0.1586	-6.99877E-002	2.55799E-005	0.00000E+000	-7.00000E-002	1.16522E-003	7	...........	-327.66
	796	0.1594	-3.00127E-002	2.65773E-005	0.00000E+000	-3.00000E-002	1.01522E-003	7	...........	-327.66
	800	0.1602	1.00248E-002	2.74926E-005	0.00000E+000	9.99999E-003	1.09022E-003	7	...........	-327.66
	804	0.161	4.99998E-002	2.83475E-005	0.00000E+000	5.00000E-002	1.24022E-003	7	...........	-327.66
	808	0.1618	9.00873E-002	2.90726E-005	0.00000E+000	9.00000E-002	1.01522E-003	7	...........	-327.66
	812	0.1626	1.30000E-001	2.96312E-005	0.00000E+000	1.30000E-001	1.19022E-003	7	...........	-327.66
	816	0.1634	1.70075E-001	3.00242E-005	0.00000E+000	1.70000E-001	1.14022E-003	7	...........	-327.66
	820	0.1642	2.09987E-001	3.02760E-005	0.00000E+000	2.10000E-001	1.01522E-003	7	...........	-327.66
	824	0.165	2.50087E-001	3.03868E-005	0.00000E+000	2.50000E-001	1.16522E-003	7	...........	-327.66
	828	0.1658	2.89950E-001	3.03860E-005	0.00000E+000	2.90000E-001	1.11522E-003	7	...........	-327.66
	832	0.1666	3.29912E-001	3.03055E-005	0.00000E+000	3.30000E-001	1.01522E-003	7	...........	-327.66
	836	0.1674	3.69950E-001	3.01900E-005	0.00000E+000	3.70000E-001	1.11522E-003	7	...........	-327.66
	840	0.1682	4.10050E-001	3.00375E-005	0.00000E+000	4.10000E-001	1.21522E-003	7	...........	-327.66
	844	0.169	4.50000E-001	2.98840E-005	0.00000E+000	4.50000E-001	1.19022E-003	7	...........	-327.66
	848	0.1698	4.89937E-001	2.97390E-005	0.00000E+000	4.90000E-001	1.11522E-003	7	...........	-327.66
	852	0.1706	5.29937E-001	2.96322E-005	0.00000E+000	5.30000E-001	1.21522E-003	7	...........	-327.66
	856	0.1714	5.69900E-001	2.95762E-005	0.00000E+000	5.70000E-001	1.06522E-003	7	...........	-327.66
	859	0.172	5.99950E-001	2.95809E-005	0.00000E+000	6.00000E-001	1.09022E-003	7	...........	-327.66
CURVE4	TABLE
	Pt	T	Vf	Im	Vu	Sig	Ach	IERange	Over	Temp
	#	s	V vs. Ref.	A	V	V	V	#	bits	deg C
	860	0.1722	5.89950E-001	2.70671E-005	0.00000E+000	5.90000E-001	1.09022E-003	7	...........	-327.66
	861	0.1724	5.79962E-001	2.47375E-005	0.00000E+000	5.80000E-001	1.06522E-003	7	...........	-327.66
	862	0.1726	5.70000E-001	2.28155E-005	0.00000E+000	5.70000E-001	9.40224E-004	7	...........	-327.66
	863	0.1728	5.60012E-001	2.11625E-005	0.00000E+000	5.60000E-001	1.29022E-003	7	...........	-327.66
	864	0.173	5.49937E-001	1.96888E-005	0.00000E+000	5.50000E-001	9.40224E-004	7	...........	-327.66
	865	0.1732	5.39937E-001	1.83597E-005	0.00000E+000	5.40000E-001	9.90224E-004	7	...........	-327.66
	866	0.1734	5.29962E-001	1.71365E-005	0.00000E+000	5.30000E-001	1.29022E-003	7	...........	-327.66
	867	0.1736	5.20000E-001	1.60006E-005	0.00000E+000	5.20000E-001	1.21522E-003	7	...........	-327.66
	868	0.1738	5.09937E-001	1.49399E-005	0.00000E+000	5.10000E-001	1.09022E-003	7	...........	-327.66
	869	0.174	4.99975E-001	1.39378E-005	0.00000E+000	5.00000E-001	1.04022E-003	7	...........	-327.66
	870	0.1742	4.89975E-001	1.29849E-005	0.00000E+000	4.90000E-001	1.09022E-003	7	...........	-327.66
	871	0.1744	4.79937E-001	1.20743E-005	0.00000E+000	4.80000E-001	1.09022E-003	7	...........	-327.66
	872	0.1746	4.69937E-001	1.12074E-005	0.00000E+000	4.70000E-001	1.04022E-003	7	...........	-327.66
	873	0.1748	4.59937E-001	1.03731E-005	0.00000E+000	4.60000E-001	1.11522E-003	7	...........	-327.66
	874	0.175	4.50112E-001	9.57146E-006	0.00000E+000	4.50000E-001	1.14022E-003	7	...........	-327.66
	875	0.1752	4.39987E-001	8.79085E-006	0.00000E+000	4.40000E-001	1.24022E-003	7	...........	-327.66
	876	0.1754	4.30087E-001	8.04125E-006	0.00000E+000	4.30000E-001	1.14022E-003	7	...........	-327.66
	877	0.1756	4.20050E-001	7.31365E-006	0.00000E+000	4.20000E-001	1.09022E-003	7	...........	-327.66
	878	0.1758	4.10062E-001	6.60705E-006	0.00000E+000	4.10000E-001	1.11522E-003	7	...........	-327.66
	879	0.176	4.00000E-001	5.91871E-006	0.00000E+000	4.00000E-001	1.14022E-003	7	...........	-327.66
	880	0.1762	3.89987E-001	5.24512E-006	0.00000E+000	3.90000E-001	1.01522E-003	7	...........	-327.66
	881	0.1764	3.79987E-001	4.59803E-006	0.00000E+000	3.80000E-001	1.19022E-003	7	...........	-327.66
	882	0.1766	3.70037E-001	3.95994E-006	0.00000E+000	3.70000E-001	1.19022E-003	7	...........	-327.66
	883	0.1768	3.60037E-001	3.33486E-006	0.00000E+000	3.60000E-001	1.19022E-003	7	...........	-327.66
	884	0.177	3.50087E-001	2.72928E-006	0.00000E+000	3.50000E-001	1.09022E-003	7	...........	-327.66
	885	0.1772	3.40012E-001	2.13494E-006	0.00000E+000	3.40000E-001	1.06522E-003	7	...........	-327.66
	886	0.1774	3.30175E-001	1.55412E-006	0.00000E+000	3.30000E-001	1.09022E-003	7	...........	-327.66
	887	0.1776	3.19987E-001	9.83538E-007	0.00000E+000	3.20000E-001	8.65224E-004	7	...........	-327.66
	888	0.1778	3.09987E-001	4.26462E-007	0.00000E+000	3.10000E-001	1.04022E-003	7	...........	-327.66
	889	0.178	3.00012E-001	-1.20613E-007	0.00000E+000	3.00000E-001	1.04022E-003	7	...........	-327.66
	890	0.1782	2.90075E-001	-6.57436E-007	0.00000E+000	2.90000E-001	1.11522E-003	7	...........	-327.66
	891	0.1784	2.80075E-001	-1.18751E-006	0.00000E+000	2.80000E-001	8.40224E-004	7	...........	-327.66
	892	0.1786	2.70112E-001	-1.70533E-006	0.00000E+000	2.70000E-001	1.09022E-003	7	...........	-327.66
	893	0.1788	2.59962E-001	-2.21365E-006	0.00000E+000	2.60000E-001	1.14022E-003	7	...........	-327.66
	894	0.179	2.50062E-001	-2.71372E-006	0.00000E+000	2.50000E-001	1.19022E-003	7	...........	-327.66
	895	0.1792	2.40050E-001	-3.20278E-006	0.00000E+000	2.40000E-001	1.04022E-003	7	...........	-327.66
	896	0.1794	2.29987E-001	-3.69260E-006	0.00000E+000	2.30000E-001	1.09022E-003	7	...........	-327.66
	897	0.1796	2.20062E-001	-4.17041E-006	0.00000E+000	2.20000E-001	1.11522E-003	7	...........	-327.66
	898	0.1798	2.10225E-001	-4.63973E-006	0.00000E+000	2.10000E-001	1.24022E-003	7	...........	-327.66
	899	0.18	2.00087E-001	-5.10579E-006	0.00000E+000	2.00000E-001	1.11522E-003	7	...........	-327.66
	900	0.1802	1.90187E-001	-5.56460E-006	0.00000E+000	1.90000E-001	9.90224E-004	7	...........	-327.66