File: Test_Data_Files/20250509_IF0011_IIA42_PBSair_E04_E_CV50000_PEDOT.DTA
EXPLAIN
TAG	CV
TITLE	LABEL	CV50000	Test Identifier
DATE	LABEL	5/9/2025	Date
TIME	LABEL	14:57:06	Time
NOTES	NOTES	1	Notes...

PSTAT	PSTAT	REF600P-43058	Potentiostat
VINIT	POTEN	0.00000E+000	T	Initial E (V)
VLIMIT1	POTEN	-9.00000E-001	F	Scan Limit 1 (V)
VLIMIT2	POTEN	6.00000E-001	F	Scan Limit 2 (V)
VFINAL	POTEN	0.00000E+000	T	Final E (V)
SCANRATE	QUANT	4.99999E+004	Scan Rate (mV/s)
STEPSIZE	QUANT	1.00000E+001	Step Size (mV)
CYCLES	IQUANT	3	Cycles (#)
IMODE	SELECTOR	1	I/E Range Mode
IRANGE	QUANT	1.00000E-002	Max Current (mA)
AREA	QUANT	1.00000E+000	Sample Area (cm^2)
EQDELAY	QUANT	5.00000E+000	Equil. Time (s)
IRCOMP	SELECTOR	0	IRComp
PFCOR	QUANT	5.00000E+001	PF Corr. (ohm)
SAMPLINGMODE	SELECTOR	2	Sampling Mode
EOC	QUANT	0.1683657	Open Circuit (V)
ELECTRODETYPE	SELECTOR	0	Electrode Type
STRIPPING	TOGGLE	F	Used for Stripping
SEQUENCER	TOGGLE	TRUE	Run as Sequence
PSTATMODEL	IQUANT	7	Pstat Model
PSTATSECTION	LABEL	REF600P-43058	Pstat Section
PSTATSERIALNO	LABEL	43058	Pstat Serial Number
CTRLMODE	IQUANT	1	Control Mode
ELECTROMETER	IQUANT	0	RE=0 or CS=1
IESTAB	IQUANT	2	I/E Stability
CASPEED	IQUANT	4	Control Amp Speed
CONVENTION	IQUANT	1	Current Convention
ICHRANGE	IQUANT	2	Ich Range
ICHRANGEMODE	TOGGLE	F	Ich Auto Range
ICHOFFSETENABLE	TOGGLE	F	Ich Offset Enable
ICHOFFSET	QUANT	0	Ich Offset (V)
ICHFILTER	IQUANT	1	Ich Filter
VCHRANGE	IQUANT	2	Vch Range
VCHRANGEMODE	TOGGLE	F	Vch Auto Range
VCHOFFSETENABLE	TOGGLE	F	Vch Offset Enable
VCHOFFSET	QUANT	0	Vch Offset (V)
VCHFILTER	IQUANT	1	Vch Filter
ACHRANGE	IQUANT	2	Ach Range
ACHOFFSETENABLE	TOGGLE	F	Ach Offset Enable
ACHOFFSET	QUANT	0	Ach Offset (V)
ACHFILTER	IQUANT	1	Ach Filter
IERANGELOWERLIMIT	IQUANT	1	I/E Range Lower Limit
IERANGEMODE	TOGGLE	F	I/E AutoRange
IERANGE	IQUANT	7	I/E Range
POSFEEDENABLE	TOGGLE	F	Positive Feedback IR Comp
POSFEEDRESISTANCE	QUANT	0	Positive Feedback Resistance (ohm)
ACHSELECT	IQUANT	4	Ach Select
SENSECABLEID	IQUANT	7	Sense Cable ID
PWRCABLEID	IQUANT	7	Power Cable ID
DCCALDATE	LABEL	5/8/2025	DC Calibration Date
ACCALDATE	LABEL	5/8/2025	AC Calibration Date
THERMOSELECT	IQUANT	1	Thermo Select
FRAMEWORKVERSION	LABEL	7.10.4	Framework Version
INSTRUMENTVERSION	LABEL	5.01	Instrument Version
COMMVERSION	LABEL	5.10	Communications Version
CPUPLDVERSION	LABEL	6.00	CPU PLD Version
CTRLPLDVERSION	LABEL	3.21	CTRL PLD Version
PSTATPLDVERSION	LABEL	0.00	PSTAT PLD Version
CURVE1	TABLE
	Pt	T	Vf	Im	Vu	Sig	Ach	IERange	Over	Temp
	#	s	V vs. Ref.	A	V	V	V	#	bits	deg C
	0	0.0002	1.68750E-001	1.14055E-008	0.00000E+000	1.68350E-001	1.29022E-003	7	...........	-327.66
	3	0.0008	1.38425E-001	-3.28429E-006	0.00000E+000	1.38350E-001	1.06522E-003	7	...........	-327.66
	6	0.0014	1.08400E-001	-5.44109E-006	0.00000E+000	1.08350E-001	1.11522E-003	7	...........	-327.66
	9	0.002	7.83748E-002	-7.10906E-006	0.00000E+000	7.83500E-002	1.06522E-003	7	...........	-327.66
	12	0.0026	4.86873E-002	-8.52851E-006	0.00000E+000	4.83500E-002	1.11522E-003	7	...........	-327.66
	15	0.0032	1.84873E-002	-9.79718E-006	0.00000E+000	1.83500E-002	1.04022E-003	7	...........	-327.66
	18	0.0038	-1.14127E-002	-1.09706E-005	0.00000E+000	-1.16500E-002	1.11522E-003	7	...........	-327.66
	21	0.0044	-4.14377E-002	-1.20795E-005	0.00000E+000	-4.16500E-002	1.11522E-003	7	...........	-327.66
	24	0.005	-7.14502E-002	-1.31531E-005	0.00000E+000	-7.16500E-002	1.14022E-003	7	...........	-327.66
	27	0.0056	-1.01625E-001	-1.41913E-005	0.00000E+000	-1.01650E-001	1.11522E-003	7	...........	-327.66
	30	0.0062	-1.31538E-001	-1.52032E-005	0.00000E+000	-1.31650E-001	1.11522E-003	7	...........	-327.66
	33	0.0068	-1.61513E-001	-1.62071E-005	0.00000E+000	-1.61650E-001	1.21522E-003	7	...........	-327.66
	36	0.0074	-1.91363E-001	-1.71957E-005	0.00000E+000	-1.91650E-001	1.16522E-003	7	...........	-327.66
	39	0.008	-2.21463E-001	-1.81793E-005	0.00000E+000	-2.21650E-001	9.15224E-004	7	...........	-327.66
	42	0.0086	-2.51413E-001	-1.91610E-005	0.00000E+000	-2.51650E-001	1.14022E-003	7	...........	-327.66
	45	0.0092	-2.81525E-001	-2.01371E-005	0.00000E+000	-2.81650E-001	1.01522E-003	7	...........	-327.66
	48	0.0098	-3.11413E-001	-2.11127E-005	0.00000E+000	-3.11650E-001	1.11522E-003	7	...........	-327.66
	51	0.0104	-3.41563E-001	-2.20851E-005	0.00000E+000	-3.41650E-001	1.24022E-003	7	...........	-327.66
	54	0.011	-3.71400E-001	-2.30522E-005	0.00000E+000	-3.71650E-001	1.09022E-003	7	...........	-327.66
	57	0.0116	-4.01475E-001	-2.40109E-005	0.00000E+000	-4.01650E-001	1.19022E-003	7	...........	-327.66
	60	0.0122	-4.31288E-001	-2.49753E-005	0.00000E+000	-4.31650E-001	1.21522E-003	7	...........	-327.66
	63	0.0128	-4.61400E-001	-2.59289E-005	0.00000E+000	-4.61650E-001	1.16522E-003	7	...........	-327.66
	66	0.0134	-4.91375E-001	-2.68683E-005	0.00000E+000	-4.91650E-001	1.06522E-003	7	...........	-327.66
	69	0.014	-5.21513E-001	-2.78051E-005	0.00000E+000	-5.21650E-001	1.14022E-003	7	...........	-327.66
	72	0.0146	-5.51325E-001	-2.87238E-005	0.00000E+000	-5.51650E-001	1.24022E-003	7	...........	-327.66
	75	0.0152	-5.81325E-001	-2.96271E-005	0.00000E+000	-5.81650E-001	1.11522E-003	7	...........	-327.66
	78	0.0158	-6.11388E-001	-3.05063E-005	0.00000E+000	-6.11650E-001	1.14022E-003	7	...........	-327.66
	81	0.0164	-6.41288E-001	-3.13526E-005	0.00000E+000	-6.41650E-001	1.06522E-003	7	...........	-327.66
	84	0.017	-6.71350E-001	-3.21662E-005	0.00000E+000	-6.71650E-001	1.06522E-003	7	...........	-327.66
	87	0.0176	-7.01250E-001	-3.29398E-005	0.00000E+000	-7.01650E-001	1.19022E-003	7	...........	-327.66
	90	0.0182	-7.31275E-001	-3.36514E-005	0.00000E+000	-7.31650E-001	1.14022E-003	7	...........	-327.66
	93	0.0188	-7.61388E-001	-3.42975E-005	0.00000E+000	-7.61650E-001	9.15224E-004	7	...........	-327.66
	96	0.0194	-7.91300E-001	-3.48503E-005	0.00000E+000	-7.91650E-001	1.21522E-003	7	...........	-327.66
	99	0.02	-8.21263E-001	-3.52892E-005	0.00000E+000	-8.21650E-001	1.14022E-003	7	...........	-327.66
	102	0.0206	-8.51313E-001	-3.55872E-005	0.00000E+000	-8.51650E-001	1.06522E-003	7	...........	-327.66
	105	0.0212	-8.81413E-001	-3.57057E-005	0.00000E+000	-8.81650E-001	1.09022E-003	7	...........	-327.66
	108	0.0218	-8.91375E-001	-3.35019E-005	0.00000E+000	-8.91650E-001	1.19022E-003	7	...........	-327.66
	111	0.0224	-8.61463E-001	-2.81194E-005	0.00000E+000	-8.61650E-001	1.11522E-003	7	...........	-327.66
	114	0.023	-8.31375E-001	-2.41419E-005	0.00000E+000	-8.31650E-001	1.01522E-003	7	...........	-327.66
	117	0.0236	-8.01413E-001	-2.07372E-005	0.00000E+000	-8.01650E-001	1.14022E-003	7	...........	-327.66
	120	0.0242	-7.71388E-001	-1.76385E-005	0.00000E+000	-7.71650E-001	1.06522E-003	7	...........	-327.66
	123	0.0248	-7.41425E-001	-1.47464E-005	0.00000E+000	-7.41650E-001	1.24022E-003	7	...........	-327.66
	126	0.0254	-7.11388E-001	-1.19992E-005	0.00000E+000	-7.11650E-001	1.09022E-003	7	...........	-327.66
	129	0.026	-6.81475E-001	-9.38788E-006	0.00000E+000	-6.81650E-001	1.01522E-003	7	...........	-327.66
	132	0.0266	-6.51388E-001	-6.89104E-006	0.00000E+000	-6.51650E-001	1.01522E-003	7	...........	-327.66
	135	0.0272	-6.21500E-001	-4.50596E-006	0.00000E+000	-6.21650E-001	1.16522E-003	7	...........	-327.66
	138	0.0278	-5.91425E-001	-2.22940E-006	0.00000E+000	-5.91650E-001	1.29022E-003	7	...........	-327.66
	141	0.0284	-5.61525E-001	-5.06030E-008	0.00000E+000	-5.61650E-001	1.11522E-003	7	...........	-327.66
	144	0.029	-5.31550E-001	2.02218E-006	0.00000E+000	-5.31650E-001	1.06522E-003	7	...........	-327.66
	147	0.0296	-5.01500E-001	4.01645E-006	0.00000E+000	-5.01650E-001	1.06522E-003	7	...........	-327.66
	150	0.0302	-4.71388E-001	5.93146E-006	0.00000E+000	-4.71650E-001	1.19022E-003	7	...........	-327.66
	153	0.0308	-4.41475E-001	7.76746E-006	0.00000E+000	-4.41650E-001	1.21522E-003	7	...........	-327.66
	156	0.0314	-4.11625E-001	9.53095E-006	0.00000E+000	-4.11650E-001	1.11522E-003	7	...........	-327.66
	159	0.032	-3.81650E-001	1.12319E-005	0.00000E+000	-3.81650E-001	1.21522E-003	7	...........	-327.66
	162	0.0326	-3.51550E-001	1.28647E-005	0.00000E+000	-3.51650E-001	1.09022E-003	7	...........	-327.66
	165	0.0332	-3.21675E-001	1.44201E-005	0.00000E+000	-3.21650E-001	1.09022E-003	7	...........	-327.66
	168	0.0338	-2.91363E-001	1.59016E-005	0.00000E+000	-2.91650E-001	9.90224E-004	7	...........	-327.66
	171	0.0344	-2.61663E-001	1.72975E-005	0.00000E+000	-2.61650E-001	1.24022E-003	7	...........	-327.66
	174	0.035	-2.31663E-001	1.86094E-005	0.00000E+000	-2.31650E-001	1.21522E-003	7	...........	-327.66
	177	0.0356	-2.01663E-001	1.98266E-005	0.00000E+000	-2.01650E-001	9.90224E-004	7	...........	-327.66
	180	0.0362	-1.71625E-001	2.09530E-005	0.00000E+000	-1.71650E-001	1.16522E-003	7	...........	-327.66
	183	0.0368	-1.41563E-001	2.19836E-005	0.00000E+000	-1.41650E-001	1.06522E-003	7	...........	-327.66
	186	0.0374	-1.11463E-001	2.29163E-005	0.00000E+000	-1.11650E-001	1.19022E-003	7	...........	-327.66
	189	0.038	-8.16627E-002	2.37609E-005	0.00000E+000	-8.16500E-002	1.24022E-003	7	...........	-327.66
	192	0.0386	-5.16502E-002	2.45160E-005	0.00000E+000	-5.16500E-002	1.14022E-003	7	...........	-327.66
	195	0.0392	-2.16627E-002	2.51931E-005	0.00000E+000	-2.16500E-002	1.04022E-003	7	...........	-327.66
	198	0.0398	8.29981E-003	2.57902E-005	0.00000E+000	8.34998E-003	1.01522E-003	7	...........	-327.66
	201	0.0404	3.83373E-002	2.63175E-005	0.00000E+000	3.83500E-002	1.21522E-003	7	...........	-327.66
	204	0.041	6.83623E-002	2.67806E-005	0.00000E+000	6.83500E-002	1.11522E-003	7	...........	-327.66
	207	0.0416	9.83623E-002	2.71919E-005	0.00000E+000	9.83500E-002	1.14022E-003	7	...........	-327.66
	210	0.0422	1.28337E-001	2.75624E-005	0.00000E+000	1.28350E-001	1.16522E-003	7	...........	-327.66
	213	0.0428	1.58337E-001	2.78787E-005	0.00000E+000	1.58350E-001	1.24022E-003	7	...........	-327.66
	216	0.0434	1.88387E-001	2.81440E-005	0.00000E+000	1.88350E-001	1.01522E-003	7	...........	-327.66
	219	0.044	2.18337E-001	2.83643E-005	0.00000E+000	2.18350E-001	1.04022E-003	7	...........	-327.66
	222	0.0446	2.48375E-001	2.85530E-005	0.00000E+000	2.48350E-001	1.19022E-003	7	...........	-327.66
	225	0.0452	2.78312E-001	2.87053E-005	0.00000E+000	2.78350E-001	1.19022E-003	7	...........	-327.66
	228	0.0458	3.08362E-001	2.87938E-005	0.00000E+000	3.08350E-001	1.14022E-003	7	...........	-327.66
	231	0.0464	3.38350E-001	2.88231E-005	0.00000E+000	3.38350E-001	1.21522E-003	7	...........	-327.66
	234	0.047	3.68262E-001	2.87953E-005	0.00000E+000	3.68350E-001	1.16522E-003	7	...........	-327.66
	237	0.0476	3.98325E-001	2.87261E-005	0.00000E+000	3.98350E-001	1.24022E-003	7	...........	-327.66
	240	0.0482	4.28262E-001	2.86236E-005	0.00000E+000	4.28350E-001	1.19022E-003	7	...........	-327.66
	243	0.0488	4.58350E-001	2.85113E-005	0.00000E+000	4.58350E-001	1.14022E-003	7	...........	-327.66
	246	0.0494	4.88337E-001	2.83963E-005	0.00000E+000	4.88350E-001	1.06522E-003	7	...........	-327.66
	249	0.05	5.18312E-001	2.82863E-005	0.00000E+000	5.18350E-001	1.09022E-003	7	...........	-327.66
	252	0.0506	5.48350E-001	2.81920E-005	0.00000E+000	5.48350E-001	1.29022E-003	7	...........	-327.66
	255	0.0512	5.78350E-001	2.81227E-005	0.00000E+000	5.78350E-001	1.09022E-003	7	...........	-327.66
	257	0.0516	5.98275E-001	2.80907E-005	0.00000E+000	5.98350E-001	1.21522E-003	7	...........	-327.66
CURVE2	TABLE
	Pt	T	Vf	Im	Vu	Sig	Ach	IERange	Over	Temp
	#	s	V vs. Ref.	A	V	V	V	#	bits	deg C
	258	0.0518	5.89900E-001	2.57987E-005	0.00000E+000	5.90000E-001	1.19022E-003	7	...........	-327.66
	262	0.0526	5.49987E-001	1.84464E-005	0.00000E+000	5.50000E-001	1.21522E-003	7	...........	-327.66
	266	0.0534	5.10000E-001	1.37823E-005	0.00000E+000	5.10000E-001	1.11522E-003	7	...........	-327.66
	270	0.0542	4.69900E-001	1.01743E-005	0.00000E+000	4.70000E-001	1.14022E-003	7	...........	-327.66
	274	0.055	4.30062E-001	7.16188E-006	0.00000E+000	4.30000E-001	1.24022E-003	7	...........	-327.66
	278	0.0558	3.89987E-001	4.53877E-006	0.00000E+000	3.90000E-001	1.06522E-003	7	...........	-327.66
	282	0.0566	3.50062E-001	2.19045E-006	0.00000E+000	3.50000E-001	1.16522E-003	7	...........	-327.66
	286	0.0574	3.10087E-001	5.86619E-008	0.00000E+000	3.10000E-001	1.09022E-003	7	...........	-327.66
	290	0.0582	2.70087E-001	-1.90661E-006	0.00000E+000	2.70000E-001	1.21522E-003	7	...........	-327.66
	294	0.059	2.30037E-001	-3.73936E-006	0.00000E+000	2.30000E-001	9.90224E-004	7	...........	-327.66
	298	0.0598	1.90250E-001	-5.47209E-006	0.00000E+000	1.90000E-001	1.19022E-003	7	...........	-327.66
	302	0.0606	1.50187E-001	-7.11407E-006	0.00000E+000	1.50000E-001	1.04022E-003	7	...........	-327.66
	306	0.0614	1.10187E-001	-8.67953E-006	0.00000E+000	1.10000E-001	1.19022E-003	7	...........	-327.66
	310	0.0622	7.02373E-002	-1.01842E-005	0.00000E+000	7.00000E-002	1.09022E-003	7	...........	-327.66
	314	0.063	3.01123E-002	-1.16397E-005	0.00000E+000	3.00000E-002	1.16522E-003	7	...........	-327.66
	318	0.0638	-9.78769E-003	-1.30454E-005	0.00000E+000	-1.00000E-002	1.24022E-003	7	...........	-327.66
	322	0.0646	-4.99127E-002	-1.44071E-005	0.00000E+000	-5.00000E-002	1.21522E-003	7	...........	-327.66
	326	0.0654	-8.98502E-002	-1.57342E-005	0.00000E+000	-9.00000E-002	1.01522E-003	7	...........	-327.66
	330	0.0662	-1.29800E-001	-1.70357E-005	0.00000E+000	-1.30000E-001	1.24022E-003	7	...........	-327.66
	334	0.067	-1.69813E-001	-1.83101E-005	0.00000E+000	-1.70000E-001	1.11522E-003	7	...........	-327.66
	338	0.0678	-2.09763E-001	-1.95710E-005	0.00000E+000	-2.10000E-001	1.24022E-003	7	...........	-327.66
	342	0.0686	-2.49750E-001	-2.08237E-005	0.00000E+000	-2.50000E-001	1.24022E-003	7	...........	-327.66
	346	0.0694	-2.89713E-001	-2.20599E-005	0.00000E+000	-2.90000E-001	1.09022E-003	7	...........	-327.66
	350	0.0702	-3.29888E-001	-2.32795E-005	0.00000E+000	-3.30000E-001	1.09022E-003	7	...........	-327.66
	354	0.071	-3.69875E-001	-2.44862E-005	0.00000E+000	-3.70000E-001	1.24022E-003	7	...........	-327.66
	358	0.0718	-4.09775E-001	-2.56788E-005	0.00000E+000	-4.10000E-001	1.06522E-003	7	...........	-327.66
	362	0.0726	-4.49700E-001	-2.68500E-005	0.00000E+000	-4.50000E-001	1.21522E-003	7	...........	-327.66
	366	0.0734	-4.89713E-001	-2.79919E-005	0.00000E+000	-4.90000E-001	1.09022E-003	7	...........	-327.66
	370	0.0742	-5.29650E-001	-2.91058E-005	0.00000E+000	-5.30000E-001	1.19022E-003	7	...........	-327.66
	374	0.075	-5.69663E-001	-3.01802E-005	0.00000E+000	-5.70000E-001	1.11522E-003	7	...........	-327.66
	378	0.0758	-6.09713E-001	-3.12119E-005	0.00000E+000	-6.10000E-001	1.19022E-003	7	...........	-327.66
	382	0.0766	-6.49663E-001	-3.21810E-005	0.00000E+000	-6.50000E-001	1.04022E-003	7	...........	-327.66
	386	0.0774	-6.89663E-001	-3.30871E-005	0.00000E+000	-6.90000E-001	1.14022E-003	7	...........	-327.66
	390	0.0782	-7.29675E-001	-3.38992E-005	0.00000E+000	-7.30000E-001	1.11522E-003	7	...........	-327.66
	394	0.079	-7.69713E-001	-3.46008E-005	0.00000E+000	-7.70000E-001	1.09022E-003	7	...........	-327.66
	398	0.0798	-8.09575E-001	-3.51576E-005	0.00000E+000	-8.10000E-001	1.09022E-003	7	...........	-327.66
	402	0.0806	-8.49763E-001	-3.55349E-005	0.00000E+000	-8.50000E-001	1.06522E-003	7	...........	-327.66
	406	0.0814	-8.89675E-001	-3.56750E-005	0.00000E+000	-8.90000E-001	1.21522E-003	7	...........	-327.66
	410	0.0822	-8.69650E-001	-2.93473E-005	0.00000E+000	-8.70000E-001	1.24022E-003	7	...........	-327.66
	414	0.083	-8.29638E-001	-2.32238E-005	0.00000E+000	-8.30000E-001	1.29022E-003	7	...........	-327.66
	418	0.0838	-7.89738E-001	-1.82648E-005	0.00000E+000	-7.90000E-001	1.01522E-003	7	...........	-327.66
	422	0.0846	-7.49713E-001	-1.39172E-005	0.00000E+000	-7.50000E-001	1.14022E-003	7	...........	-327.66
	426	0.0854	-7.09763E-001	-9.99996E-006	0.00000E+000	-7.10000E-001	1.06522E-003	7	...........	-327.66
	430	0.0862	-6.69713E-001	-6.44372E-006	0.00000E+000	-6.70000E-001	1.04022E-003	7	...........	-327.66
	434	0.087	-6.29663E-001	-3.20303E-006	0.00000E+000	-6.30000E-001	1.06522E-003	7	...........	-327.66
	438	0.0878	-5.89838E-001	-2.33878E-007	0.00000E+000	-5.90000E-001	1.09022E-003	7	...........	-327.66
	442	0.0886	-5.49675E-001	2.52725E-006	0.00000E+000	-5.50000E-001	1.14022E-003	7	...........	-327.66
	446	0.0894	-5.09700E-001	5.12910E-006	0.00000E+000	-5.10000E-001	1.11522E-003	7	...........	-327.66
	450	0.0902	-4.69688E-001	7.62169E-006	0.00000E+000	-4.70000E-001	1.19022E-003	7	...........	-327.66
	454	0.091	-4.29938E-001	1.00303E-005	0.00000E+000	-4.30000E-001	1.14022E-003	7	...........	-327.66
	458	0.0918	-3.89863E-001	1.23656E-005	0.00000E+000	-3.90000E-001	1.19022E-003	7	...........	-327.66
	462	0.0926	-3.50025E-001	1.46054E-005	0.00000E+000	-3.50000E-001	1.11522E-003	7	...........	-327.66
	466	0.0934	-3.09938E-001	1.67317E-005	0.00000E+000	-3.10000E-001	1.19022E-003	7	...........	-327.66
	470	0.0942	-2.69900E-001	1.87097E-005	0.00000E+000	-2.70000E-001	1.09022E-003	7	...........	-327.66
	474	0.095	-2.29938E-001	2.05162E-005	0.00000E+000	-2.30000E-001	1.16522E-003	7	...........	-327.66
	478	0.0958	-1.89800E-001	2.21309E-005	0.00000E+000	-1.90000E-001	1.29022E-003	7	...........	-327.66
	482	0.0966	-1.50000E-001	2.35511E-005	0.00000E+000	-1.50000E-001	1.29022E-003	7	...........	-327.66
	486	0.0974	-1.10100E-001	2.47868E-005	0.00000E+000	-1.10000E-001	1.21522E-003	7	...........	-327.66
	490	0.0982	-7.00127E-002	2.58462E-005	0.00000E+000	-7.00000E-002	1.09022E-003	7	...........	-327.66
	494	0.099	-3.00252E-002	2.67563E-005	0.00000E+000	-3.00000E-002	1.19022E-003	7	...........	-327.66
[...]
	694	0.139	-7.69688E-001	-3.50249E-005	0.00000E+000	-7.70000E-001	1.11522E-003	7	...........	-327.66
	698	0.1398	-8.09638E-001	-3.55304E-005	0.00000E+000	-8.10000E-001	1.19022E-003	7	...........	-327.66
	702	0.1406	-8.49725E-001	-3.58552E-005	0.00000E+000	-8.50000E-001	1.29022E-003	7	...........	-327.66
	706	0.1414	-8.89688E-001	-3.59447E-005	0.00000E+000	-8.90000E-001	1.16522E-003	7	...........	-327.66
	710	0.1422	-8.69675E-001	-2.94904E-005	0.00000E+000	-8.70000E-001	1.04022E-003	7	...........	-327.66
	714	0.143	-8.29638E-001	-2.31798E-005	0.00000E+000	-8.30000E-001	1.04022E-003	7	...........	-327.66
	718	0.1438	-7.89688E-001	-1.80606E-005	0.00000E+000	-7.90000E-001	1.09022E-003	7	...........	-327.66
	722	0.1446	-7.49688E-001	-1.35937E-005	0.00000E+000	-7.50000E-001	1.14022E-003	7	...........	-327.66
	726	0.1454	-7.09675E-001	-9.61016E-006	0.00000E+000	-7.10000E-001	9.90224E-004	7	...........	-327.66
	730	0.1462	-6.69750E-001	-6.03567E-006	0.00000E+000	-6.70000E-001	8.65224E-004	7	...........	-327.66
	734	0.147	-6.29725E-001	-2.81473E-006	0.00000E+000	-6.30000E-001	1.01522E-003	7	...........	-327.66
	738	0.1478	-5.89813E-001	1.22171E-007	0.00000E+000	-5.90000E-001	1.04022E-003	7	...........	-327.66
	742	0.1486	-5.49825E-001	2.84454E-006	0.00000E+000	-5.50000E-001	1.01522E-003	7	...........	-327.66
	746	0.1494	-5.09938E-001	5.42864E-006	0.00000E+000	-5.10000E-001	1.19022E-003	7	...........	-327.66
	750	0.1502	-4.69825E-001	7.91673E-006	0.00000E+000	-4.70000E-001	1.29022E-003	7	...........	-327.66
	754	0.151	-4.29988E-001	1.03446E-005	0.00000E+000	-4.30000E-001	1.16522E-003	7	...........	-327.66
	758	0.1518	-3.89875E-001	1.27134E-005	0.00000E+000	-3.90000E-001	1.21522E-003	7	...........	-327.66
	762	0.1526	-3.49900E-001	1.49972E-005	0.00000E+000	-3.50000E-001	1.06522E-003	7	...........	-327.66
	766	0.1534	-3.09938E-001	1.71692E-005	0.00000E+000	-3.10000E-001	9.90224E-004	7	...........	-327.66
	770	0.1542	-2.70025E-001	1.91868E-005	0.00000E+000	-2.70000E-001	9.90224E-004	7	...........	-327.66
	774	0.155	-2.30000E-001	2.10230E-005	0.00000E+000	-2.30000E-001	1.21522E-003	7	...........	-327.66
	778	0.1558	-1.90013E-001	2.26597E-005	0.00000E+000	-1.90000E-001	1.16522E-003	7	...........	-327.66
	782	0.1566	-1.49988E-001	2.40884E-005	0.00000E+000	-1.50000E-001	1.21522E-003	7	...........	-327.66
	786	0.1574	-1.10063E-001	2.53276E-005	0.00000E+000	-1.10000E-001	1.09022E-003	7	...........	-327.66
	790	0.1582	-6.99752E-002	2.63875E-005	0.00000E+000	-7.00000E-002	1.06522E-003	7	...........	-327.66
	794	0.159	-3.00252E-002	2.72924E-005	0.00000E+000	-3.00000E-002	9.65224E-004	7	...........	-327.66
	798	0.1598	1.00373E-002	2.80832E-005	0.00000E+000	9.99999E-003	1.19022E-003	7	...........	-327.66
	802	0.1606	4.99873E-002	2.88278E-005	0.00000E+000	5.00000E-002	1.11522E-003	7	...........	-327.66
	806	0.1614	8.99498E-002	2.94717E-005	0.00000E+000	9.00000E-002	1.09022E-003	7	...........	-327.66
	810	0.1622	1.30025E-001	3.00002E-005	0.00000E+000	1.30000E-001	1.21522E-003	7	...........	-327.66
	814	0.163	1.70075E-001	3.04045E-005	0.00000E+000	1.70000E-001	1.14022E-003	7	...........	-327.66
	818	0.1638	2.09937E-001	3.06896E-005	0.00000E+000	2.10000E-001	1.16522E-003	7	...........	-327.66
	822	0.1646	2.49925E-001	3.08656E-005	0.00000E+000	2.50000E-001	1.09022E-003	7	...........	-327.66
	826	0.1654	2.89900E-001	3.09011E-005	0.00000E+000	2.90000E-001	1.09022E-003	7	...........	-327.66
	830	0.1662	3.29950E-001	3.08359E-005	0.00000E+000	3.30000E-001	1.14022E-003	7	...........	-327.66
	834	0.167	3.69962E-001	3.06946E-005	0.00000E+000	3.70000E-001	1.04022E-003	7	...........	-327.66
	838	0.1678	4.09875E-001	3.05143E-005	0.00000E+000	4.10000E-001	1.21522E-003	7	...........	-327.66
	842	0.1686	4.50175E-001	3.03173E-005	0.00000E+000	4.50000E-001	1.14022E-003	7	...........	-327.66
	846	0.1694	4.89937E-001	3.01240E-005	0.00000E+000	4.90000E-001	1.19022E-003	7	...........	-327.66
	850	0.1702	5.29987E-001	2.99557E-005	0.00000E+000	5.30000E-001	1.16522E-003	7	...........	-327.66
	854	0.171	5.69950E-001	2.98325E-005	0.00000E+000	5.70000E-001	1.09022E-003	7	...........	-327.66
	857	0.1716	5.99937E-001	2.97837E-005	0.00000E+000	6.00000E-001	1.04022E-003	7	...........	-327.66
CURVE4	TABLE
	Pt	T	Vf	Im	Vu	Sig	Ach	IERange	Over	Temp
	#	s	V vs. Ref.	A	V	V	V	#	bits	deg C
	858	0.1718	5.89962E-001	2.72339E-005	0.00000E+000	5.90000E-001	1.14022E-003	7	...........	-327.66
	859	0.172	5.79937E-001	2.48530E-005	0.00000E+000	5.80000E-001	1.19022E-003	7	...........	-327.66
	860	0.1722	5.69962E-001	2.28753E-005	0.00000E+000	5.70000E-001	1.11522E-003	7	...........	-327.66
	861	0.1724	5.59962E-001	2.11620E-005	0.00000E+000	5.60000E-001	1.29022E-003	7	...........	-327.66
	862	0.1726	5.50000E-001	1.96351E-005	0.00000E+000	5.50000E-001	1.16522E-003	7	...........	-327.66
	863	0.1728	5.39962E-001	1.82499E-005	0.00000E+000	5.40000E-001	1.01522E-003	7	...........	-327.66
	864	0.173	5.29937E-001	1.69765E-005	0.00000E+000	5.30000E-001	1.11522E-003	7	...........	-327.66
	865	0.1732	5.19912E-001	1.57921E-005	0.00000E+000	5.20000E-001	1.14022E-003	7	...........	-327.66
	866	0.1734	5.10012E-001	1.46817E-005	0.00000E+000	5.10000E-001	1.11522E-003	7	...........	-327.66
	867	0.1736	4.99975E-001	1.36373E-005	0.00000E+000	5.00000E-001	1.14022E-003	7	...........	-327.66
	868	0.1738	4.89937E-001	1.26479E-005	0.00000E+000	4.90000E-001	1.11522E-003	7	...........	-327.66
	869	0.174	4.79975E-001	1.17032E-005	0.00000E+000	4.80000E-001	1.11522E-003	7	...........	-327.66
	870	0.1742	4.69987E-001	1.08004E-005	0.00000E+000	4.70000E-001	1.11522E-003	7	...........	-327.66
	871	0.1744	4.59962E-001	9.93401E-006	0.00000E+000	4.60000E-001	1.04022E-003	7	...........	-327.66
	872	0.1746	4.50200E-001	9.10414E-006	0.00000E+000	4.50000E-001	1.14022E-003	7	...........	-327.66
	873	0.1748	4.39962E-001	8.30329E-006	0.00000E+000	4.40000E-001	1.16522E-003	7	...........	-327.66
	874	0.175	4.30112E-001	7.52768E-006	0.00000E+000	4.30000E-001	1.29022E-003	7	...........	-327.66
	875	0.1752	4.20037E-001	6.78108E-006	0.00000E+000	4.20000E-001	1.06522E-003	7	...........	-327.66
	876	0.1754	4.09975E-001	6.05423E-006	0.00000E+000	4.10000E-001	1.06522E-003	7	...........	-327.66
	877	0.1756	4.00050E-001	5.35513E-006	0.00000E+000	4.00000E-001	1.11522E-003	7	...........	-327.66
	878	0.1758	3.89987E-001	4.66754E-006	0.00000E+000	3.90000E-001	1.09022E-003	7	...........	-327.66
	879	0.176	3.79987E-001	4.00395E-006	0.00000E+000	3.80000E-001	1.21522E-003	7	...........	-327.66
	880	0.1762	3.70000E-001	3.35586E-006	0.00000E+000	3.70000E-001	1.04022E-003	7	...........	-327.66
	881	0.1764	3.60012E-001	2.72403E-006	0.00000E+000	3.60000E-001	1.29022E-003	7	...........	-327.66
	882	0.1766	3.50062E-001	2.10894E-006	0.00000E+000	3.50000E-001	1.14022E-003	7	...........	-327.66
	883	0.1768	3.40037E-001	1.50611E-006	0.00000E+000	3.40000E-001	1.14022E-003	7	...........	-327.66
	884	0.177	3.30062E-001	9.21780E-007	0.00000E+000	3.30000E-001	1.14022E-003	7	...........	-327.66
	885	0.1772	3.20112E-001	3.46451E-007	0.00000E+000	3.20000E-001	1.14022E-003	7	...........	-327.66
	886	0.1774	3.10062E-001	-2.22376E-007	0.00000E+000	3.10000E-001	1.06522E-003	7	...........	-327.66
	887	0.1776	3.00062E-001	-7.74202E-007	0.00000E+000	3.00000E-001	1.11522E-003	7	...........	-327.66
	888	0.1778	2.90125E-001	-1.31227E-006	0.00000E+000	2.90000E-001	1.11522E-003	7	...........	-327.66
	889	0.178	2.80062E-001	-1.84060E-006	0.00000E+000	2.80000E-001	1.16522E-003	7	...........	-327.66
	890	0.1782	2.70187E-001	-2.36517E-006	0.00000E+000	2.70000E-001	9.90224E-004	7	...........	-327.66
	891	0.1784	2.59987E-001	-2.87599E-006	0.00000E+000	2.60000E-001	1.04022E-003	7	...........	-327.66
	892	0.1786	2.50150E-001	-3.37456E-006	0.00000E+000	2.50000E-001	1.16522E-003	7	...........	-327.66
	893	0.1788	2.40025E-001	-3.87187E-006	0.00000E+000	2.40000E-001	1.24022E-003	7	...........	-327.66
	894	0.179	2.30150E-001	-4.36044E-006	0.00000E+000	2.30000E-001	1.11522E-003	7	...........	-327.66
	895	0.1792	2.20150E-001	-4.84176E-006	0.00000E+000	2.20000E-001	1.06522E-003	7	...........	-327.66
	896	0.1794	2.10225E-001	-5.31432E-006	0.00000E+000	2.10000E-001	1.04022E-003	7	...........	-327.66
	897	0.1796	2.00025E-001	-5.77688E-006	0.00000E+000	2.00000E-001	1.16522E-003	7	...........	-327.66
	898	0.1798	1.90187E-001	-6.23220E-006	0.00000E+000	1.90000E-001	1.14022E-003	7	...........	-327.66
	899	0.18	1.80037E-001	-6.68776E-006	0.00000E+000	1.80000E-001	1.14022E-003	7	...........	-327.66
	900	0.1802	1.70175E-001	-7.13332E-006	0.00000E+000	1.70000E-001	8.65224E-004	7	...........	-327.66