File: Test_Data_Files/20250509_IF0011_IIA42_PBSair_E04_C_CV50_PEDOT.DTA
EXPLAIN
TAG	CV
TITLE	LABEL	CV50	Test Identifier
DATE	LABEL	5/9/2025	Date
TIME	LABEL	14:53:43	Time
NOTES	NOTES	1	Notes...

PSTAT	PSTAT	REF600P-43058	Potentiostat
VINIT	POTEN	0.00000E+000	T	Initial E (V)
VLIMIT1	POTEN	-9.00000E-001	F	Scan Limit 1 (V)
VLIMIT2	POTEN	6.00000E-001	F	Scan Limit 2 (V)
VFINAL	POTEN	0.00000E+000	T	Final E (V)
SCANRATE	QUANT	4.99999E+001	Scan Rate (mV/s)
STEPSIZE	QUANT	1.00000E+001	Step Size (mV)
CYCLES	IQUANT	3	Cycles (#)
IMODE	SELECTOR	1	I/E Range Mode
IRANGE	QUANT	1.00000E-003	Max Current (mA)
AREA	QUANT	1.00000E+000	Sample Area (cm^2)
EQDELAY	QUANT	5.00000E+000	Equil. Time (s)
IRCOMP	SELECTOR	0	IRComp
PFCOR	QUANT	5.00000E+001	PF Corr. (ohm)
SAMPLINGMODE	SELECTOR	2	Sampling Mode
EOC	QUANT	0.1683657	Open Circuit (V)
ELECTRODETYPE	SELECTOR	0	Electrode Type
STRIPPING	TOGGLE	F	Used for Stripping
SEQUENCER	TOGGLE	TRUE	Run as Sequence
PSTATMODEL	IQUANT	7	Pstat Model
PSTATSECTION	LABEL	REF600P-43058	Pstat Section
PSTATSERIALNO	LABEL	43058	Pstat Serial Number
CTRLMODE	IQUANT	1	Control Mode
ELECTROMETER	IQUANT	0	RE=0 or CS=1
IESTAB	IQUANT	2	I/E Stability
CASPEED	IQUANT	4	Control Amp Speed
CONVENTION	IQUANT	1	Current Convention
ICHRANGE	IQUANT	2	Ich Range
ICHRANGEMODE	TOGGLE	F	Ich Auto Range
ICHOFFSETENABLE	TOGGLE	F	Ich Offset Enable
ICHOFFSET	QUANT	0	Ich Offset (V)
ICHFILTER	IQUANT	2	Ich Filter
VCHRANGE	IQUANT	2	Vch Range
VCHRANGEMODE	TOGGLE	F	Vch Auto Range
VCHOFFSETENABLE	TOGGLE	F	Vch Offset Enable
VCHOFFSET	QUANT	0	Vch Offset (V)
VCHFILTER	IQUANT	2	Vch Filter
ACHRANGE	IQUANT	2	Ach Range
ACHOFFSETENABLE	TOGGLE	F	Ach Offset Enable
ACHOFFSET	QUANT	0	Ach Offset (V)
ACHFILTER	IQUANT	1	Ach Filter
IERANGELOWERLIMIT	IQUANT	1	I/E Range Lower Limit
IERANGEMODE	TOGGLE	F	I/E AutoRange
IERANGE	IQUANT	6	I/E Range
POSFEEDENABLE	TOGGLE	F	Positive Feedback IR Comp
POSFEEDRESISTANCE	QUANT	0	Positive Feedback Resistance (ohm)
ACHSELECT	IQUANT	4	Ach Select
SENSECABLEID	IQUANT	7	Sense Cable ID
PWRCABLEID	IQUANT	7	Power Cable ID
DCCALDATE	LABEL	5/8/2025	DC Calibration Date
ACCALDATE	LABEL	5/8/2025	AC Calibration Date
THERMOSELECT	IQUANT	1	Thermo Select
FRAMEWORKVERSION	LABEL	7.10.4	Framework Version
INSTRUMENTVERSION	LABEL	5.01	Instrument Version
COMMVERSION	LABEL	5.10	Communications Version
CPUPLDVERSION	LABEL	6.00	CPU PLD Version
CTRLPLDVERSION	LABEL	3.21	CTRL PLD Version
PSTATPLDVERSION	LABEL	0.00	PSTAT PLD Version
CURVE1	TABLE
	Pt	T	Vf	Im	Vu	Sig	Ach	IERange	Over	Temp
	#	s	V vs. Ref.	A	V	V	V	#	bits	deg C
	0	0.2	1.68459E-001	4.91440E-010	0.00000E+000	1.68350E-001	1.43556E-003	6	...........	-327.66
	3	0.8	1.38450E-001	-3.17448E-008	0.00000E+000	1.38350E-001	1.44092E-003	6	...........	-327.66
	6	1.4	1.08390E-001	-3.25921E-008	0.00000E+000	1.08350E-001	1.42652E-003	6	...........	-327.66
	9	2	7.83748E-002	-3.34469E-008	0.00000E+000	7.83500E-002	1.42709E-003	6	...........	-327.66
	12	2.6	4.84018E-002	-3.43037E-008	0.00000E+000	4.83500E-002	1.43367E-003	6	...........	-327.66
	15	3.2	1.83942E-002	-3.55479E-008	0.00000E+000	1.83500E-002	1.43601E-003	6	...........	-327.66
	18	3.8	-1.15210E-002	-3.66575E-008	0.00000E+000	-1.16500E-002	1.43784E-003	6	...........	-327.66
	21	4.4	-4.15886E-002	-3.79868E-008	0.00000E+000	-4.16500E-002	1.42944E-003	6	...........	-327.66
	24	5	-7.16118E-002	-3.94501E-008	0.00000E+000	-7.16500E-002	1.43772E-003	6	...........	-327.66
	27	5.6	-1.01589E-001	-4.10509E-008	0.00000E+000	-1.01650E-001	1.44321E-003	6	...........	-327.66
	30	6.2	-1.31636E-001	-4.27347E-008	0.00000E+000	-1.31650E-001	1.43372E-003	6	...........	-327.66
	33	6.8	-1.61629E-001	-4.46756E-008	0.00000E+000	-1.61650E-001	1.44221E-003	6	...........	-327.66
	36	7.4	-1.91595E-001	-4.66683E-008	0.00000E+000	-1.91650E-001	1.43134E-003	6	...........	-327.66
	39	8	-2.21536E-001	-4.89048E-008	0.00000E+000	-2.21650E-001	1.43747E-003	6	...........	-327.66
	42	8.6	-2.51611E-001	-5.13156E-008	0.00000E+000	-2.51650E-001	1.44271E-003	6	...........	-327.66
	45	9.2	-2.81626E-001	-5.37347E-008	0.00000E+000	-2.81650E-001	1.42569E-003	6	...........	-327.66
	48	9.8	-3.11596E-001	-5.62291E-008	0.00000E+000	-3.11650E-001	1.43370E-003	6	...........	-327.66
	51	10.4	-3.41598E-001	-5.90139E-008	0.00000E+000	-3.41650E-001	1.43914E-003	6	...........	-327.66
	54	11	-3.71568E-001	-6.18277E-008	0.00000E+000	-3.71650E-001	1.42972E-003	6	...........	-327.66
	57	11.6	-4.01578E-001	-6.46877E-008	0.00000E+000	-4.01650E-001	1.42995E-003	6	...........	-327.66
	60	12.2	-4.31553E-001	-6.75114E-008	0.00000E+000	-4.31650E-001	1.43230E-003	6	...........	-327.66
	63	12.8	-4.61548E-001	-7.05198E-008	0.00000E+000	-4.61650E-001	1.43604E-003	6	...........	-327.66
	66	13.4	-4.91566E-001	-7.35820E-008	0.00000E+000	-4.91650E-001	1.44329E-003	6	...........	-327.66
	69	14	-5.21582E-001	-7.69072E-008	0.00000E+000	-5.21650E-001	1.44378E-003	6	...........	-327.66
	72	14.6	-5.51540E-001	-8.02548E-008	0.00000E+000	-5.51650E-001	1.43782E-003	6	...........	-327.66
	75	15.2	-5.81541E-001	-8.36446E-008	0.00000E+000	-5.81650E-001	1.44002E-003	6	...........	-327.66
	78	15.8	-6.11584E-001	-8.66610E-008	0.00000E+000	-6.11650E-001	1.44403E-003	6	...........	-327.66
	81	16.4	-6.41581E-001	-8.89601E-008	0.00000E+000	-6.41650E-001	1.44668E-003	6	...........	-327.66
	84	17	-6.71482E-001	-8.99426E-008	0.00000E+000	-6.71650E-001	1.44769E-003	6	...........	-327.66
	87	17.6	-7.01521E-001	-8.77521E-008	0.00000E+000	-7.01650E-001	1.44292E-003	6	...........	-327.66
	90	18.2	-7.31517E-001	-8.08374E-008	0.00000E+000	-7.31650E-001	1.44516E-003	6	...........	-327.66
	93	18.8	-7.61556E-001	-7.03436E-008	0.00000E+000	-7.61650E-001	1.43344E-003	6	...........	-327.66
	96	19.4	-7.91537E-001	-5.81173E-008	0.00000E+000	-7.91650E-001	1.44227E-003	6	...........	-327.66
	99	20	-8.21534E-001	-4.73569E-008	0.00000E+000	-8.21650E-001	1.45911E-003	6	...........	-327.66
	102	20.6	-8.51559E-001	-3.89587E-008	0.00000E+000	-8.51650E-001	1.44299E-003	6	...........	-327.66
	105	21.2	-8.81530E-001	-3.27908E-008	0.00000E+000	-8.81650E-001	1.45516E-003	6	...........	-327.66
	108	21.8	-8.91598E-001	-2.53460E-008	0.00000E+000	-8.91650E-001	1.46780E-003	6	...........	-327.66
	111	22.4	-8.61570E-001	-1.97671E-008	0.00000E+000	-8.61650E-001	1.45565E-003	6	...........	-327.66
	114	23	-8.31518E-001	-1.54613E-008	0.00000E+000	-8.31650E-001	1.44443E-003	6	...........	-327.66
	117	23.6	-8.01608E-001	-1.06565E-008	0.00000E+000	-8.01650E-001	1.45695E-003	6	...........	-327.66
	120	24.2	-7.71602E-001	-4.05120E-009	0.00000E+000	-7.71650E-001	1.45711E-003	6	...........	-327.66
	123	24.8	-7.41612E-001	5.53091E-009	0.00000E+000	-7.41650E-001	1.45535E-003	6	...........	-327.66
	126	25.4	-7.11604E-001	1.78355E-008	0.00000E+000	-7.11650E-001	1.45993E-003	6	...........	-327.66
	129	26	-6.81597E-001	2.76470E-008	0.00000E+000	-6.81650E-001	1.44503E-003	6	...........	-327.66
	132	26.6	-6.51519E-001	2.96470E-008	0.00000E+000	-6.51650E-001	1.46005E-003	6	...........	-327.66
	135	27.2	-6.21611E-001	2.95141E-008	0.00000E+000	-6.21650E-001	1.45368E-003	6	...........	-327.66
	138	27.8	-5.91607E-001	3.02369E-008	0.00000E+000	-5.91650E-001	1.44751E-003	6	...........	-327.66
	141	28.4	-5.61660E-001	3.13507E-008	0.00000E+000	-5.61650E-001	1.45571E-003	6	...........	-327.66
	144	29	-5.31641E-001	3.27513E-008	0.00000E+000	-5.31650E-001	1.45351E-003	6	...........	-327.66
	147	29.6	-5.01577E-001	3.44898E-008	0.00000E+000	-5.01650E-001	1.45870E-003	6	...........	-327.66
	150	30.2	-4.71551E-001	3.62551E-008	0.00000E+000	-4.71650E-001	1.45500E-003	6	...........	-327.66
	153	30.8	-4.41633E-001	3.81292E-008	0.00000E+000	-4.41650E-001	1.44593E-003	6	...........	-327.66
	156	31.4	-4.11636E-001	4.01523E-008	0.00000E+000	-4.11650E-001	1.45028E-003	6	...........	-327.66
	159	32	-3.81625E-001	4.21463E-008	0.00000E+000	-3.81650E-001	1.43877E-003	6	...........	-327.66
	162	32.6	-3.51645E-001	4.40045E-008	0.00000E+000	-3.51650E-001	1.44221E-003	6	...........	-327.66
	165	33.2	-3.21636E-001	4.56206E-008	0.00000E+000	-3.21650E-001	1.45166E-003	6	...........	-327.66
	168	33.8	-2.91612E-001	4.69656E-008	0.00000E+000	-2.91650E-001	1.44369E-003	6	...........	-327.66
	171	34.4	-2.61623E-001	4.81070E-008	0.00000E+000	-2.61650E-001	1.43777E-003	6	...........	-327.66
	174	35	-2.31632E-001	4.92146E-008	0.00000E+000	-2.31650E-001	1.45455E-003	6	...........	-327.66
	177	35.6	-2.01675E-001	4.99290E-008	0.00000E+000	-2.01650E-001	1.43594E-003	6	...........	-327.66
	180	36.2	-1.71661E-001	5.07622E-008	0.00000E+000	-1.71650E-001	1.44711E-003	6	...........	-327.66
	183	36.8	-1.41590E-001	5.13855E-008	0.00000E+000	-1.41650E-001	1.44214E-003	6	...........	-327.66
	186	37.4	-1.11651E-001	5.18252E-008	0.00000E+000	-1.11650E-001	1.43646E-003	6	...........	-327.66
	189	38	-8.16451E-002	5.23697E-008	0.00000E+000	-8.16500E-002	1.43871E-003	6	...........	-327.66
	192	38.6	-5.16587E-002	5.26741E-008	0.00000E+000	-5.16500E-002	1.44284E-003	6	...........	-327.66
	195	39.2	-2.16245E-002	5.29072E-008	0.00000E+000	-2.16500E-002	1.44899E-003	6	...........	-327.66
	198	39.8	8.35928E-003	5.33573E-008	0.00000E+000	8.34998E-003	1.44483E-003	6	...........	-327.66
	201	40.4	3.83631E-002	5.36283E-008	0.00000E+000	3.83500E-002	1.43859E-003	6	...........	-327.66
	204	41	6.83817E-002	5.39562E-008	0.00000E+000	6.83500E-002	1.44566E-003	6	...........	-327.66
	207	41.6	9.83738E-002	5.43994E-008	0.00000E+000	9.83500E-002	1.43656E-003	6	...........	-327.66
	210	42.2	1.28375E-001	5.49543E-008	0.00000E+000	1.28350E-001	1.42307E-003	6	...........	-327.66
	213	42.8	1.58346E-001	5.54175E-008	0.00000E+000	1.58350E-001	1.44142E-003	6	...........	-327.66
	216	43.4	1.88354E-001	5.58562E-008	0.00000E+000	1.88350E-001	1.42927E-003	6	...........	-327.66
	219	44	2.18349E-001	5.61052E-008	0.00000E+000	2.18350E-001	1.43104E-003	6	...........	-327.66
	222	44.6	2.48363E-001	5.64776E-008	0.00000E+000	2.48350E-001	1.44037E-003	6	...........	-327.66
	225	45.2	2.78317E-001	5.67959E-008	0.00000E+000	2.78350E-001	1.42490E-003	6	...........	-327.66
	228	45.8	3.08346E-001	5.72166E-008	0.00000E+000	3.08350E-001	1.42885E-003	6	...........	-327.66
	231	46.4	3.38363E-001	5.77762E-008	0.00000E+000	3.38350E-001	1.43339E-003	6	...........	-327.66
	234	47	3.68331E-001	5.86487E-008	0.00000E+000	3.68350E-001	1.42575E-003	6	...........	-327.66
	237	47.6	3.98305E-001	5.96095E-008	0.00000E+000	3.98350E-001	1.44282E-003	6	...........	-327.66
	240	48.2	4.28362E-001	6.07481E-008	0.00000E+000	4.28350E-001	1.43587E-003	6	...........	-327.66
	243	48.8	4.58352E-001	6.20869E-008	0.00000E+000	4.58350E-001	1.43829E-003	6	...........	-327.66
	246	49.4	4.88317E-001	6.36182E-008	0.00000E+000	4.88350E-001	1.42519E-003	6	...........	-327.66
	249	50	5.18291E-001	6.51832E-008	0.00000E+000	5.18350E-001	1.42237E-003	6	...........	-327.66
	252	50.6	5.48308E-001	6.70866E-008	0.00000E+000	5.48350E-001	1.43857E-003	6	...........	-327.66
	255	51.2	5.78364E-001	6.93881E-008	0.00000E+000	5.78350E-001	1.43180E-003	6	...........	-327.66
	257	51.6	5.98301E-001	7.13310E-008	0.00000E+000	5.98350E-001	1.42887E-003	6	...........	-327.66
CURVE2	TABLE
	Pt	T	Vf	Im	Vu	Sig	Ach	IERange	Over	Temp
	#	s	V vs. Ref.	A	V	V	V	#	bits	deg C
	258	51.8	5.89976E-001	-5.08971E-010	0.00000E+000	5.90000E-001	1.43562E-003	6	...........	-327.66
	261	52.4	5.59974E-001	-2.17728E-008	0.00000E+000	5.60000E-001	1.42617E-003	6	...........	-327.66
	264	53	5.30007E-001	-2.73788E-008	0.00000E+000	5.30000E-001	1.43686E-003	6	...........	-327.66
	267	53.6	5.00008E-001	-3.02922E-008	0.00000E+000	5.00000E-001	1.44081E-003	6	...........	-327.66
	270	54.2	4.69973E-001	-3.20755E-008	0.00000E+000	4.70000E-001	1.43199E-003	6	...........	-327.66
	273	54.8	4.39940E-001	-3.34454E-008	0.00000E+000	4.40000E-001	1.43682E-003	6	...........	-327.66
	276	55.4	4.09977E-001	-3.43842E-008	0.00000E+000	4.10000E-001	1.42272E-003	6	...........	-327.66
	279	56	3.80000E-001	-3.52132E-008	0.00000E+000	3.80000E-001	1.44136E-003	6	...........	-327.66
	282	56.6	3.50018E-001	-3.59155E-008	0.00000E+000	3.50000E-001	1.44157E-003	6	...........	-327.66
	285	57.2	3.19992E-001	-3.65092E-008	0.00000E+000	3.20000E-001	1.43360E-003	6	...........	-327.66
	288	57.8	2.90006E-001	-3.70280E-008	0.00000E+000	2.90000E-001	1.44274E-003	6	...........	-327.66
	291	58.4	2.60003E-001	-3.76863E-008	0.00000E+000	2.60000E-001	1.44347E-003	6	...........	-327.66
	294	59	2.29998E-001	-3.81767E-008	0.00000E+000	2.30000E-001	1.44663E-003	6	...........	-327.66
	297	59.6	2.00002E-001	-3.86768E-008	0.00000E+000	2.00000E-001	1.44169E-003	6	...........	-327.66
	300	60.2	1.70098E-001	-3.92028E-008	0.00000E+000	1.70000E-001	1.44613E-003	6	...........	-327.66
	303	60.8	1.40090E-001	-3.97692E-008	0.00000E+000	1.40000E-001	1.44913E-003	6	...........	-327.66
	306	61.4	1.10021E-001	-4.03115E-008	0.00000E+000	1.10000E-001	1.44768E-003	6	...........	-327.66
	309	62	7.99908E-002	-4.09658E-008	0.00000E+000	8.00000E-002	1.43382E-003	6	...........	-327.66
	312	62.6	5.00297E-002	-4.15215E-008	0.00000E+000	5.00000E-002	1.44606E-003	6	...........	-327.66
	315	63.2	2.00104E-002	-4.22262E-008	0.00000E+000	2.00000E-002	1.44509E-003	6	...........	-327.66
	318	63.8	-9.96405E-003	-4.28469E-008	0.00000E+000	-1.00000E-002	1.43229E-003	6	...........	-327.66
	321	64.4	-3.99469E-002	-4.35778E-008	0.00000E+000	-4.00000E-002	1.44911E-003	6	...........	-327.66
	324	65	-6.99446E-002	-4.42787E-008	0.00000E+000	-7.00000E-002	1.42815E-003	6	...........	-327.66
	327	65.6	-9.99818E-002	-4.51259E-008	0.00000E+000	-1.00000E-001	1.43462E-003	6	...........	-327.66
	330	66.2	-1.30003E-001	-4.59107E-008	0.00000E+000	-1.30000E-001	1.45053E-003	6	...........	-327.66
	333	66.8	-1.60004E-001	-4.67815E-008	0.00000E+000	-1.60000E-001	1.44196E-003	6	...........	-327.66
	336	67.4	-1.89864E-001	-4.77218E-008	0.00000E+000	-1.90000E-001	1.45650E-003	6	...........	-327.66
	339	68	-2.19902E-001	-4.88727E-008	0.00000E+000	-2.20000E-001	1.44984E-003	6	...........	-327.66
	342	68.6	-2.49971E-001	-5.00812E-008	0.00000E+000	-2.50000E-001	1.43692E-003	6	...........	-327.66
	345	69.2	-2.80005E-001	-5.15100E-008	0.00000E+000	-2.80000E-001	1.44973E-003	6	...........	-327.66
	348	69.8	-3.09964E-001	-5.31285E-008	0.00000E+000	-3.10000E-001	1.44237E-003	6	...........	-327.66
	351	70.4	-3.39989E-001	-5.50813E-008	0.00000E+000	-3.40000E-001	1.44426E-003	6	...........	-327.66
	354	71	-3.69867E-001	-5.68791E-008	0.00000E+000	-3.70000E-001	1.45191E-003	6	...........	-327.66
	357	71.6	-3.99966E-001	-5.86950E-008	0.00000E+000	-4.00000E-001	1.43356E-003	6	...........	-327.66
	360	72.2	-4.29936E-001	-6.04085E-008	0.00000E+000	-4.30000E-001	1.45063E-003	6	...........	-327.66
	363	72.8	-4.59957E-001	-6.21802E-008	0.00000E+000	-4.60000E-001	1.45381E-003	6	...........	-327.66
	366	73.4	-4.89940E-001	-6.38027E-008	0.00000E+000	-4.90000E-001	1.44696E-003	6	...........	-327.66
	369	74	-5.19984E-001	-6.55833E-008	0.00000E+000	-5.20000E-001	1.44984E-003	6	...........	-327.66
	372	74.6	-5.49812E-001	-6.71655E-008	0.00000E+000	-5.50000E-001	1.44419E-003	6	...........	-327.66
	375	75.2	-5.79852E-001	-6.86973E-008	0.00000E+000	-5.80000E-001	1.44679E-003	6	...........	-327.66
	378	75.8	-6.09925E-001	-7.00842E-008	0.00000E+000	-6.10000E-001	1.44959E-003	6	...........	-327.66
	381	76.4	-6.39952E-001	-7.09968E-008	0.00000E+000	-6.40000E-001	1.45114E-003	6	...........	-327.66
	384	77	-6.69774E-001	-7.11885E-008	0.00000E+000	-6.70000E-001	1.44829E-003	6	...........	-327.66
	387	77.6	-6.99949E-001	-6.99904E-008	0.00000E+000	-7.00000E-001	1.44934E-003	6	...........	-327.66
	390	78.2	-7.29850E-001	-6.55663E-008	0.00000E+000	-7.30000E-001	1.44383E-003	6	...........	-327.66
	393	78.8	-7.59898E-001	-5.87117E-008	0.00000E+000	-7.60000E-001	1.45138E-003	6	...........	-327.66
	396	79.4	-7.89881E-001	-5.06306E-008	0.00000E+000	-7.90000E-001	1.44893E-003	6	...........	-327.66
	399	80	-8.19922E-001	-4.26590E-008	0.00000E+000	-8.20000E-001	1.45446E-003	6	...........	-327.66
	402	80.6	-8.49895E-001	-3.55202E-008	0.00000E+000	-8.50000E-001	1.45626E-003	6	...........	-327.66
	405	81.2	-8.79946E-001	-3.04079E-008	0.00000E+000	-8.80000E-001	1.45183E-003	6	...........	-327.66
	408	81.8	-8.89952E-001	-2.28371E-008	0.00000E+000	-8.90000E-001	1.44329E-003	6	...........	-327.66
	411	82.4	-8.59895E-001	-1.66734E-008	0.00000E+000	-8.60000E-001	1.44656E-003	6	...........	-327.66
	414	83	-8.29766E-001	-1.18506E-008	0.00000E+000	-8.30000E-001	1.45510E-003	6	...........	-327.66
	417	83.6	-7.99977E-001	-6.50633E-009	0.00000E+000	-8.00000E-001	1.45106E-003	6	...........	-327.66
	420	84.2	-7.69979E-001	9.51202E-010	0.00000E+000	-7.70000E-001	1.45746E-003	6	...........	-327.66
	423	84.8	-7.39989E-001	1.11869E-008	0.00000E+000	-7.40000E-001	1.45188E-003	6	...........	-327.66
	426	85.4	-7.09925E-001	2.30334E-008	0.00000E+000	-7.10000E-001	1.45208E-003	6	...........	-327.66
	429	86	-6.79931E-001	2.95791E-008	0.00000E+000	-6.80000E-001	1.45816E-003	6	...........	-327.66
	432	86.6	-6.49931E-001	2.95604E-008	0.00000E+000	-6.50000E-001	1.45191E-003	6	...........	-327.66
	435	87.2	-6.19985E-001	2.92540E-008	0.00000E+000	-6.20000E-001	1.45490E-003	6	...........	-327.66
	438	87.8	-5.89977E-001	2.97466E-008	0.00000E+000	-5.90000E-001	1.45575E-003	6	...........	-327.66
	441	88.4	-5.60025E-001	3.06363E-008	0.00000E+000	-5.60000E-001	1.44766E-003	6	...........	-327.66
	444	89	-5.29990E-001	3.17590E-008	0.00000E+000	-5.30000E-001	1.46392E-003	6	...........	-327.66
[...]
	732	146.6	-6.49922E-001	2.92849E-008	0.00000E+000	-6.50000E-001	1.45498E-003	6	...........	-327.66
	735	147.2	-6.19983E-001	2.90261E-008	0.00000E+000	-6.20000E-001	1.46780E-003	6	...........	-327.66
	738	147.8	-5.89973E-001	2.94805E-008	0.00000E+000	-5.90000E-001	1.45520E-003	6	...........	-327.66
	741	148.4	-5.60018E-001	3.02048E-008	0.00000E+000	-5.60000E-001	1.45158E-003	6	...........	-327.66
	744	149	-5.29987E-001	3.12616E-008	0.00000E+000	-5.30000E-001	1.46258E-003	6	...........	-327.66
	747	149.6	-4.99919E-001	3.25784E-008	0.00000E+000	-5.00000E-001	1.45836E-003	6	...........	-327.66
	750	150.2	-4.69888E-001	3.41146E-008	0.00000E+000	-4.70000E-001	1.46090E-003	6	...........	-327.66
	753	150.8	-4.40007E-001	3.58881E-008	0.00000E+000	-4.40000E-001	1.46518E-003	6	...........	-327.66
	756	151.4	-4.10000E-001	3.76481E-008	0.00000E+000	-4.10000E-001	1.46793E-003	6	...........	-327.66
	759	152	-3.80010E-001	3.94212E-008	0.00000E+000	-3.80000E-001	1.46525E-003	6	...........	-327.66
	762	152.6	-3.50004E-001	4.14003E-008	0.00000E+000	-3.50000E-001	1.46717E-003	6	...........	-327.66
	765	153.2	-3.20016E-001	4.30329E-008	0.00000E+000	-3.20000E-001	1.45653E-003	6	...........	-327.66
	768	153.8	-2.89969E-001	4.45384E-008	0.00000E+000	-2.90000E-001	1.46397E-003	6	...........	-327.66
	771	154.4	-2.60004E-001	4.58758E-008	0.00000E+000	-2.60000E-001	1.46093E-003	6	...........	-327.66
	774	155	-2.29997E-001	4.71340E-008	0.00000E+000	-2.30000E-001	1.46200E-003	6	...........	-327.66
	777	155.6	-2.00050E-001	4.80548E-008	0.00000E+000	-2.00000E-001	1.46163E-003	6	...........	-327.66
	780	156.2	-1.70015E-001	4.90204E-008	0.00000E+000	-1.70000E-001	1.45988E-003	6	...........	-327.66
	783	156.8	-1.40005E-001	4.96933E-008	0.00000E+000	-1.40000E-001	1.46315E-003	6	...........	-327.66
	786	157.4	-1.09996E-001	5.03283E-008	0.00000E+000	-1.10000E-001	1.47605E-003	6	...........	-327.66
	789	158	-8.00210E-002	5.10677E-008	0.00000E+000	-8.00000E-002	1.44808E-003	6	...........	-327.66
	792	158.6	-5.00324E-002	5.14468E-008	0.00000E+000	-5.00000E-002	1.46201E-003	6	...........	-327.66
	795	159.2	-2.00034E-002	5.18475E-008	0.00000E+000	-2.00000E-002	1.46522E-003	6	...........	-327.66
	798	159.8	1.00155E-002	5.24178E-008	0.00000E+000	9.99999E-003	1.45038E-003	6	...........	-327.66
	801	160.4	3.97920E-002	5.27538E-008	0.00000E+000	4.00000E-002	1.46948E-003	6	...........	-327.66
	804	161	7.00052E-002	5.32025E-008	0.00000E+000	7.00000E-002	1.45961E-003	6	...........	-327.66
	807	161.6	9.99907E-002	5.37171E-008	0.00000E+000	1.00000E-001	1.46700E-003	6	...........	-327.66
	810	162.2	1.30016E-001	5.45088E-008	0.00000E+000	1.30000E-001	1.45706E-003	6	...........	-327.66
	813	162.8	1.59983E-001	5.51063E-008	0.00000E+000	1.60000E-001	1.45525E-003	6	...........	-327.66
	816	163.4	1.89997E-001	5.57098E-008	0.00000E+000	1.90000E-001	1.47245E-003	6	...........	-327.66
	819	164	2.19939E-001	5.62448E-008	0.00000E+000	2.20000E-001	1.45846E-003	6	...........	-327.66
	822	164.6	2.50009E-001	5.68548E-008	0.00000E+000	2.50000E-001	1.46346E-003	6	...........	-327.66
	825	165.2	2.79961E-001	5.73617E-008	0.00000E+000	2.80000E-001	1.46788E-003	6	...........	-327.66
	828	165.8	3.09981E-001	5.79679E-008	0.00000E+000	3.10000E-001	1.46493E-003	6	...........	-327.66
	831	166.4	3.39983E-001	5.87098E-008	0.00000E+000	3.40000E-001	1.46233E-003	6	...........	-327.66
	834	167	3.69979E-001	5.96810E-008	0.00000E+000	3.70000E-001	1.46285E-003	6	...........	-327.66
	837	167.6	3.99952E-001	6.06180E-008	0.00000E+000	4.00000E-001	1.45588E-003	6	...........	-327.66
	840	168.2	4.29981E-001	6.17282E-008	0.00000E+000	4.30000E-001	1.47200E-003	6	...........	-327.66
	843	168.8	4.59974E-001	6.29798E-008	0.00000E+000	4.60000E-001	1.45201E-003	6	...........	-327.66
	846	169.4	4.89950E-001	6.44928E-008	0.00000E+000	4.90000E-001	1.45885E-003	6	...........	-327.66
	849	170	5.19945E-001	6.62239E-008	0.00000E+000	5.20000E-001	1.46755E-003	6	...........	-327.66
	852	170.6	5.49963E-001	6.83481E-008	0.00000E+000	5.50000E-001	1.46688E-003	6	...........	-327.66
	855	171.2	5.79973E-001	7.12472E-008	0.00000E+000	5.80000E-001	1.46657E-003	6	...........	-327.66
	857	171.6	5.99952E-001	7.37474E-008	0.00000E+000	6.00000E-001	1.46515E-003	6	...........	-327.66
CURVE4	TABLE
	Pt	T	Vf	Im	Vu	Sig	Ach	IERange	Over	Temp
	#	s	V vs. Ref.	A	V	V	V	#	bits	deg C
	858	171.8	5.89980E-001	-6.38473E-009	0.00000E+000	5.90000E-001	1.46565E-003	6	...........	-327.66
	859	172	5.79992E-001	-1.39729E-008	0.00000E+000	5.80000E-001	1.47260E-003	6	...........	-327.66
	860	172.2	5.69985E-001	-1.85283E-008	0.00000E+000	5.70000E-001	1.44963E-003	6	...........	-327.66
	861	172.4	5.59964E-001	-2.17810E-008	0.00000E+000	5.60000E-001	1.45470E-003	6	...........	-327.66
	862	172.6	5.49991E-001	-2.41927E-008	0.00000E+000	5.50000E-001	1.45333E-003	6	...........	-327.66
	863	172.8	5.39997E-001	-2.60249E-008	0.00000E+000	5.40000E-001	1.46018E-003	6	...........	-327.66
	864	173	5.30013E-001	-2.74188E-008	0.00000E+000	5.30000E-001	1.46080E-003	6	...........	-327.66
	865	173.2	5.19983E-001	-2.85829E-008	0.00000E+000	5.20000E-001	1.46643E-003	6	...........	-327.66
	866	173.4	5.09976E-001	-2.95251E-008	0.00000E+000	5.10000E-001	1.46607E-003	6	...........	-327.66
	867	173.6	5.00010E-001	-3.03226E-008	0.00000E+000	5.00000E-001	1.46498E-003	6	...........	-327.66
	868	173.8	4.89973E-001	-3.10603E-008	0.00000E+000	4.90000E-001	1.46001E-003	6	...........	-327.66
	869	174	4.79959E-001	-3.16978E-008	0.00000E+000	4.80000E-001	1.46255E-003	6	...........	-327.66
	870	174.2	4.69974E-001	-3.22411E-008	0.00000E+000	4.70000E-001	1.45801E-003	6	...........	-327.66
	871	174.4	4.59996E-001	-3.27170E-008	0.00000E+000	4.60000E-001	1.46423E-003	6	...........	-327.66
	872	174.6	4.50023E-001	-3.31094E-008	0.00000E+000	4.50000E-001	1.46737E-003	6	...........	-327.66
	873	174.8	4.39941E-001	-3.36136E-008	0.00000E+000	4.40000E-001	1.46281E-003	6	...........	-327.66
	874	175	4.29994E-001	-3.39296E-008	0.00000E+000	4.30000E-001	1.46623E-003	6	...........	-327.66
	875	175.2	4.20042E-001	-3.42792E-008	0.00000E+000	4.20000E-001	1.45678E-003	6	...........	-327.66
	876	175.4	4.09981E-001	-3.45396E-008	0.00000E+000	4.10000E-001	1.45131E-003	6	...........	-327.66
	877	175.6	3.99980E-001	-3.48904E-008	0.00000E+000	4.00000E-001	1.47187E-003	6	...........	-327.66
	878	175.8	3.89992E-001	-3.52117E-008	0.00000E+000	3.90000E-001	1.46276E-003	6	...........	-327.66
	879	176	3.80001E-001	-3.54509E-008	0.00000E+000	3.80000E-001	1.46051E-003	6	...........	-327.66
	880	176.2	3.70030E-001	-3.56432E-008	0.00000E+000	3.70000E-001	1.47125E-003	6	...........	-327.66
	881	176.4	3.59971E-001	-3.59155E-008	0.00000E+000	3.60000E-001	1.45645E-003	6	...........	-327.66
	882	176.6	3.50029E-001	-3.61576E-008	0.00000E+000	3.50000E-001	1.47045E-003	6	...........	-327.66
	883	176.8	3.40014E-001	-3.64177E-008	0.00000E+000	3.40000E-001	1.46040E-003	6	...........	-327.66
	884	177	3.30021E-001	-3.65294E-008	0.00000E+000	3.30000E-001	1.45738E-003	6	...........	-327.66
	885	177.2	3.19997E-001	-3.68278E-008	0.00000E+000	3.20000E-001	1.45866E-003	6	...........	-327.66
	886	177.4	3.09999E-001	-3.70309E-008	0.00000E+000	3.10000E-001	1.45139E-003	6	...........	-327.66
	887	177.6	3.00001E-001	-3.72658E-008	0.00000E+000	3.00000E-001	1.45998E-003	6	...........	-327.66
	888	177.8	2.90015E-001	-3.73428E-008	0.00000E+000	2.90000E-001	1.46812E-003	6	...........	-327.66
	889	178	2.79988E-001	-3.76123E-008	0.00000E+000	2.80000E-001	1.46968E-003	6	...........	-327.66
	890	178.2	2.70110E-001	-3.77653E-008	0.00000E+000	2.70000E-001	1.46020E-003	6	...........	-327.66
	891	178.4	2.60008E-001	-3.79986E-008	0.00000E+000	2.60000E-001	1.46375E-003	6	...........	-327.66
	892	178.6	2.50057E-001	-3.80389E-008	0.00000E+000	2.50000E-001	1.44709E-003	6	...........	-327.66
	893	178.8	2.40013E-001	-3.83016E-008	0.00000E+000	2.40000E-001	1.45446E-003	6	...........	-327.66
	894	179	2.30007E-001	-3.84905E-008	0.00000E+000	2.30000E-001	1.46043E-003	6	...........	-327.66
	895	179.2	2.20008E-001	-3.87073E-008	0.00000E+000	2.20000E-001	1.46068E-003	6	...........	-327.66
	896	179.4	2.10009E-001	-3.88318E-008	0.00000E+000	2.10000E-001	1.46838E-003	6	...........	-327.66
	897	179.6	2.00007E-001	-3.90522E-008	0.00000E+000	2.00000E-001	1.46025E-003	6	...........	-327.66
	898	179.8	1.90057E-001	-3.91961E-008	0.00000E+000	1.90000E-001	1.46928E-003	6	...........	-327.66
	899	180	1.80020E-001	-3.94229E-008	0.00000E+000	1.80000E-001	1.46378E-003	6	...........	-327.66
	900	180.2	1.70114E-001	-3.95744E-008	0.00000E+000	1.70000E-001	1.46803E-003	6	...........	-327.66