File: Test_Data_Files/20250509_IF0011_IIA42_PBSair_E03_D_CV5000_PEDOT.DTA
EXPLAIN
TAG	CV
TITLE	LABEL	CV5000	Test Identifier
DATE	LABEL	5/9/2025	Date
TIME	LABEL	14:46:28	Time
NOTES	NOTES	1	Notes...

PSTAT	PSTAT	REF600P-43058	Potentiostat
VINIT	POTEN	0.00000E+000	T	Initial E (V)
VLIMIT1	POTEN	-9.00000E-001	F	Scan Limit 1 (V)
VLIMIT2	POTEN	6.00000E-001	F	Scan Limit 2 (V)
VFINAL	POTEN	0.00000E+000	T	Final E (V)
SCANRATE	QUANT	4.99999E+003	Scan Rate (mV/s)
STEPSIZE	QUANT	1.00000E+001	Step Size (mV)
CYCLES	IQUANT	3	Cycles (#)
IMODE	SELECTOR	1	I/E Range Mode
IRANGE	QUANT	1.00000E-002	Max Current (mA)
AREA	QUANT	1.00000E+000	Sample Area (cm^2)
EQDELAY	QUANT	5.00000E+000	Equil. Time (s)
IRCOMP	SELECTOR	0	IRComp
PFCOR	QUANT	5.00000E+001	PF Corr. (ohm)
SAMPLINGMODE	SELECTOR	2	Sampling Mode
EOC	QUANT	0.1704582	Open Circuit (V)
ELECTRODETYPE	SELECTOR	0	Electrode Type
STRIPPING	TOGGLE	F	Used for Stripping
SEQUENCER	TOGGLE	TRUE	Run as Sequence
PSTATMODEL	IQUANT	7	Pstat Model
PSTATSECTION	LABEL	REF600P-43058	Pstat Section
PSTATSERIALNO	LABEL	43058	Pstat Serial Number
CTRLMODE	IQUANT	1	Control Mode
ELECTROMETER	IQUANT	0	RE=0 or CS=1
IESTAB	IQUANT	2	I/E Stability
CASPEED	IQUANT	4	Control Amp Speed
CONVENTION	IQUANT	1	Current Convention
ICHRANGE	IQUANT	2	Ich Range
ICHRANGEMODE	TOGGLE	F	Ich Auto Range
ICHOFFSETENABLE	TOGGLE	F	Ich Offset Enable
ICHOFFSET	QUANT	0	Ich Offset (V)
ICHFILTER	IQUANT	2	Ich Filter
VCHRANGE	IQUANT	2	Vch Range
VCHRANGEMODE	TOGGLE	F	Vch Auto Range
VCHOFFSETENABLE	TOGGLE	F	Vch Offset Enable
VCHOFFSET	QUANT	0	Vch Offset (V)
VCHFILTER	IQUANT	2	Vch Filter
ACHRANGE	IQUANT	2	Ach Range
ACHOFFSETENABLE	TOGGLE	F	Ach Offset Enable
ACHOFFSET	QUANT	0	Ach Offset (V)
ACHFILTER	IQUANT	1	Ach Filter
IERANGELOWERLIMIT	IQUANT	1	I/E Range Lower Limit
IERANGEMODE	TOGGLE	F	I/E AutoRange
IERANGE	IQUANT	7	I/E Range
POSFEEDENABLE	TOGGLE	F	Positive Feedback IR Comp
POSFEEDRESISTANCE	QUANT	0	Positive Feedback Resistance (ohm)
ACHSELECT	IQUANT	4	Ach Select
SENSECABLEID	IQUANT	7	Sense Cable ID
PWRCABLEID	IQUANT	7	Power Cable ID
DCCALDATE	LABEL	5/8/2025	DC Calibration Date
ACCALDATE	LABEL	5/8/2025	AC Calibration Date
THERMOSELECT	IQUANT	1	Thermo Select
FRAMEWORKVERSION	LABEL	7.10.4	Framework Version
INSTRUMENTVERSION	LABEL	5.01	Instrument Version
COMMVERSION	LABEL	5.10	Communications Version
CPUPLDVERSION	LABEL	6.00	CPU PLD Version
CTRLPLDVERSION	LABEL	3.21	CTRL PLD Version
PSTATPLDVERSION	LABEL	0.00	PSTAT PLD Version
CURVE1	TABLE
	Pt	T	Vf	Im	Vu	Sig	Ach	IERange	Over	Temp
	#	s	V vs. Ref.	A	V	V	V	#	bits	deg C
	0	0.002	1.70435E-001	7.92390E-009	0.00000E+000	1.70450E-001	1.41091E-003	7	...........	-327.66
	3	0.008	1.41328E-001	-1.24230E-006	0.00000E+000	1.40450E-001	1.46953E-003	7	...........	-327.66
	6	0.014	1.11266E-001	-1.76927E-006	0.00000E+000	1.10450E-001	1.36436E-003	7	...........	-327.66
	9	0.02	8.12799E-002	-2.16949E-006	0.00000E+000	8.04500E-002	1.42298E-003	7	...........	-327.66
	12	0.026	5.12575E-002	-2.50569E-006	0.00000E+000	5.04500E-002	1.43850E-003	7	...........	-327.66
	15	0.032	2.12877E-002	-2.79703E-006	0.00000E+000	2.04500E-002	1.49540E-003	7	...........	-327.66
	18	0.038	-8.72097E-003	-3.05727E-006	0.00000E+000	-9.55001E-003	1.47988E-003	7	...........	-327.66
	21	0.044	-3.86951E-002	-3.29185E-006	0.00000E+000	-3.95500E-002	1.40574E-003	7	...........	-327.66
	24	0.05	-6.87037E-002	-3.50492E-006	0.00000E+000	-6.95500E-002	1.44884E-003	7	...........	-327.66
	27	0.056	-9.87641E-002	-3.70294E-006	0.00000E+000	-9.95500E-002	1.40057E-003	7	...........	-327.66
	30	0.062	-1.28748E-001	-3.88738E-006	0.00000E+000	-1.29550E-001	1.49367E-003	7	...........	-327.66
	33	0.068	-1.58710E-001	-4.05911E-006	0.00000E+000	-1.59550E-001	1.39540E-003	7	...........	-327.66
	36	0.074	-1.88672E-001	-4.22308E-006	0.00000E+000	-1.89550E-001	1.36436E-003	7	...........	-327.66
	39	0.08	-2.18645E-001	-4.37736E-006	0.00000E+000	-2.19550E-001	1.45574E-003	7	...........	-327.66
	42	0.086	-2.48685E-001	-4.52490E-006	0.00000E+000	-2.49550E-001	1.45747E-003	7	...........	-327.66
	45	0.092	-2.78664E-001	-4.66149E-006	0.00000E+000	-2.79550E-001	1.41953E-003	7	...........	-327.66
	48	0.098	-3.08700E-001	-4.78830E-006	0.00000E+000	-3.09550E-001	1.49540E-003	7	...........	-327.66
	51	0.104	-3.38680E-001	-4.90199E-006	0.00000E+000	-3.39550E-001	1.41264E-003	7	...........	-327.66
	54	0.11	-3.68670E-001	-5.00200E-006	0.00000E+000	-3.69550E-001	1.41091E-003	7	...........	-327.66
	57	0.116	-3.98653E-001	-5.08570E-006	0.00000E+000	-3.99550E-001	1.39022E-003	7	...........	-327.66
	60	0.122	-4.28665E-001	-5.15466E-006	0.00000E+000	-4.29550E-001	1.39367E-003	7	...........	-327.66
	63	0.128	-4.58687E-001	-5.20511E-006	0.00000E+000	-4.59550E-001	1.46264E-003	7	...........	-327.66
	66	0.134	-4.88689E-001	-5.23938E-006	0.00000E+000	-4.89550E-001	1.47126E-003	7	...........	-327.66
	69	0.14	-5.18630E-001	-5.26085E-006	0.00000E+000	-5.19550E-001	1.47298E-003	7	...........	-327.66
	72	0.146	-5.48653E-001	-5.26657E-006	0.00000E+000	-5.49550E-001	1.41091E-003	7	...........	-327.66
	75	0.152	-5.78620E-001	-5.24941E-006	0.00000E+000	-5.79550E-001	1.45229E-003	7	...........	-327.66
	78	0.158	-6.08686E-001	-5.19634E-006	0.00000E+000	-6.09550E-001	1.44022E-003	7	...........	-327.66
	81	0.164	-6.38614E-001	-5.07185E-006	0.00000E+000	-6.39550E-001	1.37988E-003	7	...........	-327.66
	84	0.17	-6.68623E-001	-4.83425E-006	0.00000E+000	-6.69550E-001	1.38850E-003	7	...........	-327.66
	87	0.176	-6.98630E-001	-4.44572E-006	0.00000E+000	-6.99550E-001	1.47298E-003	7	...........	-327.66
	90	0.182	-7.28657E-001	-3.89256E-006	0.00000E+000	-7.29550E-001	1.40229E-003	7	...........	-327.66
	93	0.188	-7.58617E-001	-3.22521E-006	0.00000E+000	-7.59550E-001	1.40574E-003	7	...........	-327.66
	96	0.194	-7.88661E-001	-2.54373E-006	0.00000E+000	-7.89550E-001	1.40747E-003	7	...........	-327.66
	99	0.2	-8.18682E-001	-1.95679E-006	0.00000E+000	-8.19550E-001	1.47126E-003	7	...........	-327.66
	102	0.206	-8.48714E-001	-1.53023E-006	0.00000E+000	-8.49550E-001	1.38333E-003	7	...........	-327.66
	105	0.212	-8.78609E-001	-1.24375E-006	0.00000E+000	-8.79550E-001	1.38678E-003	7	...........	-327.66
	108	0.218	-8.90229E-001	-9.72261E-007	0.00000E+000	-8.89550E-001	1.46436E-003	7	...........	-327.66
	111	0.224	-8.60247E-001	-7.43541E-007	0.00000E+000	-8.59550E-001	1.48850E-003	7	...........	-327.66
	114	0.23	-8.30207E-001	-6.01176E-007	0.00000E+000	-8.29550E-001	1.46781E-003	7	...........	-327.66
	117	0.236	-8.00127E-001	-4.77039E-007	0.00000E+000	-7.99550E-001	1.48333E-003	7	...........	-327.66
	120	0.242	-7.70219E-001	-3.46814E-007	0.00000E+000	-7.69550E-001	1.40057E-003	7	...........	-327.66
	123	0.248	-7.40283E-001	-1.91120E-007	0.00000E+000	-7.39550E-001	1.42298E-003	7	...........	-327.66
	126	0.254	-7.10273E-001	1.60974E-008	0.00000E+000	-7.09550E-001	1.44884E-003	7	...........	-327.66
	129	0.26	-6.80192E-001	2.99067E-007	0.00000E+000	-6.79550E-001	1.39195E-003	7	...........	-327.66
	132	0.266	-6.50259E-001	6.89931E-007	0.00000E+000	-6.49550E-001	1.46953E-003	7	...........	-327.66
	135	0.272	-6.20219E-001	1.21747E-006	0.00000E+000	-6.19550E-001	1.40057E-003	7	...........	-327.66
	138	0.278	-5.90319E-001	1.91148E-006	0.00000E+000	-5.89550E-001	1.41264E-003	7	...........	-327.66
	141	0.284	-5.60338E-001	2.77632E-006	0.00000E+000	-5.59550E-001	1.41609E-003	7	...........	-327.66
	144	0.29	-5.30311E-001	3.75433E-006	0.00000E+000	-5.29550E-001	1.44712E-003	7	...........	-327.66
	147	0.296	-5.00276E-001	4.66442E-006	0.00000E+000	-4.99550E-001	1.39884E-003	7	...........	-327.66
	150	0.302	-4.70347E-001	5.20858E-006	0.00000E+000	-4.69550E-001	1.46091E-003	7	...........	-327.66
	153	0.308	-4.40262E-001	5.29261E-006	0.00000E+000	-4.39550E-001	1.42815E-003	7	...........	-327.66
	156	0.314	-4.10355E-001	5.10955E-006	0.00000E+000	-4.09550E-001	1.36264E-003	7	...........	-327.66
	159	0.32	-3.80354E-001	4.88152E-006	0.00000E+000	-3.79550E-001	1.46264E-003	7	...........	-327.66
	162	0.326	-3.50329E-001	4.70472E-006	0.00000E+000	-3.49550E-001	1.41436E-003	7	...........	-327.66
	165	0.332	-3.20279E-001	4.58781E-006	0.00000E+000	-3.19550E-001	1.37988E-003	7	...........	-327.66
	168	0.338	-2.90355E-001	4.51604E-006	0.00000E+000	-2.89550E-001	1.39712E-003	7	...........	-327.66
	171	0.344	-2.60336E-001	4.47450E-006	0.00000E+000	-2.59550E-001	1.40574E-003	7	...........	-327.66
	174	0.35	-2.30368E-001	4.44330E-006	0.00000E+000	-2.29550E-001	1.42988E-003	7	...........	-327.66
	177	0.356	-2.00356E-001	4.41537E-006	0.00000E+000	-1.99550E-001	1.47643E-003	7	...........	-327.66
	180	0.362	-1.70354E-001	4.39006E-006	0.00000E+000	-1.69550E-001	1.44540E-003	7	...........	-327.66
	183	0.368	-1.40305E-001	4.37036E-006	0.00000E+000	-1.39550E-001	1.42988E-003	7	...........	-327.66
	186	0.374	-1.10377E-001	4.35277E-006	0.00000E+000	-1.09550E-001	1.44367E-003	7	...........	-327.66
	189	0.38	-8.03460E-002	4.33970E-006	0.00000E+000	-7.95500E-002	1.42471E-003	7	...........	-327.66
	192	0.386	-5.03873E-002	4.32444E-006	0.00000E+000	-4.95500E-002	1.43505E-003	7	...........	-327.66
	195	0.392	-2.03770E-002	4.30635E-006	0.00000E+000	-1.95500E-002	1.43160E-003	7	...........	-327.66
	198	0.398	9.65662E-003	4.28530E-006	0.00000E+000	1.04500E-002	1.44712E-003	7	...........	-327.66
	201	0.404	3.97075E-002	4.26078E-006	0.00000E+000	4.04500E-002	1.39022E-003	7	...........	-327.66
	204	0.41	6.96661E-002	4.23031E-006	0.00000E+000	7.04500E-002	1.39884E-003	7	...........	-327.66
	207	0.416	9.96592E-002	4.19815E-006	0.00000E+000	1.00450E-001	1.43333E-003	7	...........	-327.66
	210	0.422	1.29654E-001	4.16199E-006	0.00000E+000	1.30450E-001	1.44367E-003	7	...........	-327.66
	213	0.428	1.59674E-001	4.12492E-006	0.00000E+000	1.60450E-001	1.47988E-003	7	...........	-327.66
	216	0.434	1.89664E-001	4.08750E-006	0.00000E+000	1.90450E-001	1.43678E-003	7	...........	-327.66
	219	0.44	2.19667E-001	4.04996E-006	0.00000E+000	2.20450E-001	1.41264E-003	7	...........	-327.66
	222	0.446	2.49622E-001	4.01363E-006	0.00000E+000	2.50450E-001	1.40402E-003	7	...........	-327.66
	225	0.452	2.79639E-001	3.98126E-006	0.00000E+000	2.80450E-001	1.41436E-003	7	...........	-327.66
	228	0.458	3.09627E-001	3.95194E-006	0.00000E+000	3.10450E-001	1.46436E-003	7	...........	-327.66
	231	0.464	3.39615E-001	3.92937E-006	0.00000E+000	3.40450E-001	1.46953E-003	7	...........	-327.66
	234	0.47	3.69655E-001	3.91537E-006	0.00000E+000	3.70450E-001	1.40574E-003	7	...........	-327.66
	237	0.476	3.99690E-001	3.91059E-006	0.00000E+000	4.00450E-001	1.46264E-003	7	...........	-327.66
	240	0.482	4.29605E-001	3.91604E-006	0.00000E+000	4.30450E-001	1.44540E-003	7	...........	-327.66
	243	0.488	4.59624E-001	3.93156E-006	0.00000E+000	4.60450E-001	1.49367E-003	7	...........	-327.66
	246	0.494	4.89604E-001	3.95715E-006	0.00000E+000	4.90450E-001	1.40747E-003	7	...........	-327.66
	249	0.5	5.19617E-001	3.99321E-006	0.00000E+000	5.20450E-001	1.45402E-003	7	...........	-327.66
	252	0.506	5.49626E-001	4.03792E-006	0.00000E+000	5.50450E-001	1.48160E-003	7	...........	-327.66
	255	0.512	5.79612E-001	4.09790E-006	0.00000E+000	5.80450E-001	1.37988E-003	7	...........	-327.66
	257	0.516	5.99627E-001	4.14838E-006	0.00000E+000	6.00450E-001	1.41609E-003	7	...........	-327.66
CURVE2	TABLE
	Pt	T	Vf	Im	Vu	Sig	Ach	IERange	Over	Temp
	#	s	V vs. Ref.	A	V	V	V	#	bits	deg C
	258	0.518	5.90789E-001	2.79389E-006	0.00000E+000	5.90000E-001	1.40229E-003	7	...........	-327.66
	261	0.524	5.60757E-001	1.18498E-006	0.00000E+000	5.60000E-001	1.44195E-003	7	...........	-327.66
	264	0.53	5.30808E-001	2.36541E-007	0.00000E+000	5.30000E-001	1.43678E-003	7	...........	-327.66
	267	0.536	5.00824E-001	-4.61864E-007	0.00000E+000	5.00000E-001	1.44367E-003	7	...........	-327.66
	270	0.542	4.70782E-001	-1.00839E-006	0.00000E+000	4.70000E-001	1.49712E-003	7	...........	-327.66
	273	0.548	4.40772E-001	-1.45391E-006	0.00000E+000	4.40000E-001	1.52126E-003	7	...........	-327.66
	276	0.554	4.10770E-001	-1.82150E-006	0.00000E+000	4.10000E-001	1.39367E-003	7	...........	-327.66
	279	0.56	3.80805E-001	-2.13392E-006	0.00000E+000	3.80000E-001	1.41436E-003	7	...........	-327.66
	282	0.566	3.50834E-001	-2.40259E-006	0.00000E+000	3.50000E-001	1.42298E-003	7	...........	-327.66
	285	0.572	3.20802E-001	-2.63797E-006	0.00000E+000	3.20000E-001	1.39540E-003	7	...........	-327.66
	288	0.578	2.90806E-001	-2.84731E-006	0.00000E+000	2.90000E-001	1.39712E-003	7	...........	-327.66
	291	0.584	2.60804E-001	-3.03704E-006	0.00000E+000	2.60000E-001	1.44195E-003	7	...........	-327.66
	294	0.59	2.30807E-001	-3.20907E-006	0.00000E+000	2.30000E-001	1.44540E-003	7	...........	-327.66
	297	0.596	2.00819E-001	-3.36955E-006	0.00000E+000	2.00000E-001	1.37643E-003	7	...........	-327.66
	300	0.602	1.70877E-001	-3.51837E-006	0.00000E+000	1.70000E-001	1.39884E-003	7	...........	-327.66
	303	0.608	1.40882E-001	-3.65913E-006	0.00000E+000	1.40000E-001	1.44884E-003	7	...........	-327.66
	306	0.614	1.10835E-001	-3.78977E-006	0.00000E+000	1.10000E-001	1.41436E-003	7	...........	-327.66
	309	0.62	8.08006E-002	-3.91237E-006	0.00000E+000	8.00000E-002	1.43678E-003	7	...........	-327.66
	312	0.626	5.08264E-002	-4.02663E-006	0.00000E+000	5.00000E-002	1.45057E-003	7	...........	-327.66
	315	0.632	2.08377E-002	-4.13414E-006	0.00000E+000	2.00000E-002	1.39022E-003	7	...........	-327.66
	318	0.638	-9.14252E-003	-4.23372E-006	0.00000E+000	-1.00000E-002	1.43505E-003	7	...........	-327.66
	321	0.644	-3.91408E-002	-4.32651E-006	0.00000E+000	-4.00000E-002	1.46609E-003	7	...........	-327.66
	324	0.65	-6.91330E-002	-4.41082E-006	0.00000E+000	-7.00000E-002	1.39195E-003	7	...........	-327.66
	327	0.656	-9.91598E-002	-4.48924E-006	0.00000E+000	-1.00000E-001	1.43505E-003	7	...........	-327.66
	330	0.662	-1.29186E-001	-4.55939E-006	0.00000E+000	-1.30000E-001	1.50402E-003	7	...........	-327.66
	333	0.668	-1.59185E-001	-4.62190E-006	0.00000E+000	-1.60000E-001	1.45919E-003	7	...........	-327.66
	336	0.674	-1.89122E-001	-4.67544E-006	0.00000E+000	-1.90000E-001	1.43678E-003	7	...........	-327.66
	339	0.68	-2.19086E-001	-4.72288E-006	0.00000E+000	-2.20000E-001	1.50574E-003	7	...........	-327.66
	342	0.686	-2.49130E-001	-4.75997E-006	0.00000E+000	-2.50000E-001	1.37988E-003	7	...........	-327.66
	345	0.692	-2.79186E-001	-4.78883E-006	0.00000E+000	-2.80000E-001	1.43850E-003	7	...........	-327.66
	348	0.698	-3.09128E-001	-4.80642E-006	0.00000E+000	-3.10000E-001	1.48505E-003	7	...........	-327.66
	351	0.704	-3.39149E-001	-4.81651E-006	0.00000E+000	-3.40000E-001	1.48505E-003	7	...........	-327.66
	354	0.71	-3.69011E-001	-4.81806E-006	0.00000E+000	-3.70000E-001	1.48160E-003	7	...........	-327.66
	357	0.716	-3.99117E-001	-4.81259E-006	0.00000E+000	-4.00000E-001	1.39540E-003	7	...........	-327.66
	360	0.722	-4.29134E-001	-4.80308E-006	0.00000E+000	-4.30000E-001	1.48333E-003	7	...........	-327.66
	363	0.728	-4.59126E-001	-4.79057E-006	0.00000E+000	-4.60000E-001	1.45402E-003	7	...........	-327.66
	366	0.734	-4.89128E-001	-4.77540E-006	0.00000E+000	-4.90000E-001	1.42988E-003	7	...........	-327.66
	369	0.74	-5.19152E-001	-4.75940E-006	0.00000E+000	-5.20000E-001	1.41091E-003	7	...........	-327.66
	372	0.746	-5.49056E-001	-4.73558E-006	0.00000E+000	-5.50000E-001	1.45402E-003	7	...........	-327.66
	375	0.752	-5.79061E-001	-4.69068E-006	0.00000E+000	-5.80000E-001	1.43160E-003	7	...........	-327.66
	378	0.758	-6.09117E-001	-4.60586E-006	0.00000E+000	-6.10000E-001	1.49712E-003	7	...........	-327.66
	381	0.764	-6.39130E-001	-4.44753E-006	0.00000E+000	-6.40000E-001	1.49195E-003	7	...........	-327.66
	384	0.77	-6.69043E-001	-4.18258E-006	0.00000E+000	-6.70000E-001	1.48850E-003	7	...........	-327.66
	387	0.776	-6.99099E-001	-3.79754E-006	0.00000E+000	-7.00000E-001	1.45057E-003	7	...........	-327.66
	390	0.782	-7.29042E-001	-3.29613E-006	0.00000E+000	-7.30000E-001	1.46781E-003	7	...........	-327.66
	393	0.788	-7.59079E-001	-2.73842E-006	0.00000E+000	-7.60000E-001	1.41436E-003	7	...........	-327.66
	396	0.794	-7.89132E-001	-2.20133E-006	0.00000E+000	-7.90000E-001	1.46091E-003	7	...........	-327.66
	399	0.8	-8.19168E-001	-1.75482E-006	0.00000E+000	-8.20000E-001	1.42298E-003	7	...........	-327.66
	402	0.806	-8.49158E-001	-1.42515E-006	0.00000E+000	-8.50000E-001	1.42471E-003	7	...........	-327.66
	405	0.812	-8.79133E-001	-1.18836E-006	0.00000E+000	-8.80000E-001	1.40747E-003	7	...........	-327.66
	408	0.818	-8.90692E-001	-9.45620E-007	0.00000E+000	-8.90000E-001	1.40402E-003	7	...........	-327.66
	411	0.824	-8.60661E-001	-7.31435E-007	0.00000E+000	-8.60000E-001	1.38678E-003	7	...........	-327.66
	414	0.83	-8.30657E-001	-5.88571E-007	0.00000E+000	-8.30000E-001	1.48160E-003	7	...........	-327.66
	417	0.836	-8.00689E-001	-4.63796E-007	0.00000E+000	-8.00000E-001	1.47988E-003	7	...........	-327.66
	420	0.842	-7.70622E-001	-3.33502E-007	0.00000E+000	-7.70000E-001	1.42643E-003	7	...........	-327.66
	423	0.848	-7.40738E-001	-1.72583E-007	0.00000E+000	-7.40000E-001	1.45747E-003	7	...........	-327.66
	426	0.854	-7.10674E-001	4.05145E-008	0.00000E+000	-7.10000E-001	1.46781E-003	7	...........	-327.66
	429	0.86	-6.80674E-001	3.32278E-007	0.00000E+000	-6.80000E-001	1.48678E-003	7	...........	-327.66
	432	0.866	-6.50685E-001	7.34230E-007	0.00000E+000	-6.50000E-001	1.41781E-003	7	...........	-327.66
	435	0.872	-6.20709E-001	1.27842E-006	0.00000E+000	-6.20000E-001	1.43505E-003	7	...........	-327.66
	438	0.878	-5.90745E-001	1.99088E-006	0.00000E+000	-5.90000E-001	1.45057E-003	7	...........	-327.66
[...]
	732	1.466	-6.50733E-001	7.60095E-007	0.00000E+000	-6.50000E-001	1.46264E-003	7	...........	-327.66
	735	1.472	-6.20717E-001	1.31317E-006	0.00000E+000	-6.20000E-001	1.43160E-003	7	...........	-327.66
	738	1.478	-5.90747E-001	2.03203E-006	0.00000E+000	-5.90000E-001	1.44195E-003	7	...........	-327.66
	741	1.484	-5.60762E-001	2.92072E-006	0.00000E+000	-5.60000E-001	1.48678E-003	7	...........	-327.66
	744	1.49	-5.30762E-001	3.90273E-006	0.00000E+000	-5.30000E-001	1.43850E-003	7	...........	-327.66
	747	1.496	-5.00706E-001	4.77054E-006	0.00000E+000	-5.00000E-001	1.40919E-003	7	...........	-327.66
	750	1.502	-4.70704E-001	5.21612E-006	0.00000E+000	-4.70000E-001	1.42643E-003	7	...........	-327.66
	753	1.508	-4.40755E-001	5.20755E-006	0.00000E+000	-4.40000E-001	1.35402E-003	7	...........	-327.66
	756	1.514	-4.10771E-001	4.97495E-006	0.00000E+000	-4.10000E-001	1.38333E-003	7	...........	-327.66
	759	1.52	-3.80789E-001	4.73526E-006	0.00000E+000	-3.80000E-001	1.41781E-003	7	...........	-327.66
	762	1.526	-3.50776E-001	4.56368E-006	0.00000E+000	-3.50000E-001	1.43850E-003	7	...........	-327.66
	765	1.532	-3.20767E-001	4.46225E-006	0.00000E+000	-3.20000E-001	1.43850E-003	7	...........	-327.66
	768	1.538	-2.90748E-001	4.40485E-006	0.00000E+000	-2.90000E-001	1.42643E-003	7	...........	-327.66
	771	1.544	-2.60767E-001	4.36259E-006	0.00000E+000	-2.60000E-001	1.47298E-003	7	...........	-327.66
	774	1.55	-2.30775E-001	4.33250E-006	0.00000E+000	-2.30000E-001	1.47471E-003	7	...........	-327.66
	777	1.556	-2.00805E-001	4.30956E-006	0.00000E+000	-2.00000E-001	1.45229E-003	7	...........	-327.66
	780	1.562	-1.70800E-001	4.29385E-006	0.00000E+000	-1.70000E-001	1.46436E-003	7	...........	-327.66
	783	1.568	-1.40797E-001	4.28118E-006	0.00000E+000	-1.40000E-001	1.39540E-003	7	...........	-327.66
	786	1.574	-1.10762E-001	4.27166E-006	0.00000E+000	-1.10000E-001	1.46091E-003	7	...........	-327.66
	789	1.58	-8.08072E-002	4.26325E-006	0.00000E+000	-8.00000E-002	1.40574E-003	7	...........	-327.66
	792	1.586	-5.08287E-002	4.25493E-006	0.00000E+000	-5.00000E-002	1.44367E-003	7	...........	-327.66
	795	1.592	-2.07796E-002	4.24278E-006	0.00000E+000	-2.00000E-002	1.41091E-003	7	...........	-327.66
	798	1.598	9.23851E-003	4.22821E-006	0.00000E+000	9.99999E-003	1.38333E-003	7	...........	-327.66
	801	1.604	3.91437E-002	4.21005E-006	0.00000E+000	4.00000E-002	1.50747E-003	7	...........	-327.66
	804	1.61	6.92161E-002	4.18658E-006	0.00000E+000	7.00000E-002	1.40919E-003	7	...........	-327.66
	807	1.616	9.92144E-002	4.16068E-006	0.00000E+000	1.00000E-001	1.49195E-003	7	...........	-327.66
	810	1.622	1.29244E-001	4.13157E-006	0.00000E+000	1.30000E-001	1.39195E-003	7	...........	-327.66
	813	1.628	1.59232E-001	4.10046E-006	0.00000E+000	1.60000E-001	1.46264E-003	7	...........	-327.66
	816	1.634	1.89249E-001	4.06956E-006	0.00000E+000	1.90000E-001	1.46953E-003	7	...........	-327.66
	819	1.64	2.19209E-001	4.03740E-006	0.00000E+000	2.20000E-001	1.46436E-003	7	...........	-327.66
	822	1.646	2.49248E-001	4.00856E-006	0.00000E+000	2.50000E-001	1.44367E-003	7	...........	-327.66
	825	1.652	2.79192E-001	3.98114E-006	0.00000E+000	2.80000E-001	1.43505E-003	7	...........	-327.66
	828	1.658	3.09197E-001	3.95900E-006	0.00000E+000	3.10000E-001	1.36436E-003	7	...........	-327.66
	831	1.664	3.39213E-001	3.94237E-006	0.00000E+000	3.40000E-001	1.42643E-003	7	...........	-327.66
	834	1.67	3.69210E-001	3.93372E-006	0.00000E+000	3.70000E-001	1.45574E-003	7	...........	-327.66
	837	1.676	3.99209E-001	3.93399E-006	0.00000E+000	4.00000E-001	1.43505E-003	7	...........	-327.66
	840	1.682	4.29180E-001	3.94329E-006	0.00000E+000	4.30000E-001	1.44540E-003	7	...........	-327.66
	843	1.688	4.59188E-001	3.96251E-006	0.00000E+000	4.60000E-001	1.46436E-003	7	...........	-327.66
	846	1.694	4.89158E-001	3.99379E-006	0.00000E+000	4.90000E-001	1.35229E-003	7	...........	-327.66
	849	1.7	5.19187E-001	4.03858E-006	0.00000E+000	5.20000E-001	1.38850E-003	7	...........	-327.66
	852	1.706	5.49193E-001	4.09388E-006	0.00000E+000	5.50000E-001	1.37643E-003	7	...........	-327.66
	855	1.712	5.79208E-001	4.16080E-006	0.00000E+000	5.80000E-001	1.43160E-003	7	...........	-327.66
	857	1.716	5.99157E-001	4.21119E-006	0.00000E+000	6.00000E-001	1.38505E-003	7	...........	-327.66
CURVE4	TABLE
	Pt	T	Vf	Im	Vu	Sig	Ach	IERange	Over	Temp
	#	s	V vs. Ref.	A	V	V	V	#	bits	deg C
	858	1.718	5.90772E-001	2.84983E-006	0.00000E+000	5.90000E-001	1.41609E-003	7	...........	-327.66
	859	1.72	5.80765E-001	2.11419E-006	0.00000E+000	5.80000E-001	1.45574E-003	7	...........	-327.66
	860	1.722	5.70751E-001	1.57740E-006	0.00000E+000	5.70000E-001	1.40402E-003	7	...........	-327.66
	861	1.724	5.60772E-001	1.13975E-006	0.00000E+000	5.60000E-001	1.42471E-003	7	...........	-327.66
	862	1.726	5.50789E-001	7.66648E-007	0.00000E+000	5.50000E-001	1.46091E-003	7	...........	-327.66
	863	1.728	5.40774E-001	4.39155E-007	0.00000E+000	5.40000E-001	1.47126E-003	7	...........	-327.66
	864	1.73	5.30798E-001	1.48115E-007	0.00000E+000	5.30000E-001	1.47471E-003	7	...........	-327.66
	865	1.732	5.20781E-001	-1.14869E-007	0.00000E+000	5.20000E-001	1.44367E-003	7	...........	-327.66
	866	1.734	5.10763E-001	-3.53953E-007	0.00000E+000	5.10000E-001	1.36264E-003	7	...........	-327.66
	867	1.736	5.00822E-001	-5.73086E-007	0.00000E+000	5.00000E-001	1.38160E-003	7	...........	-327.66
	868	1.738	4.90765E-001	-7.74045E-007	0.00000E+000	4.90000E-001	1.41091E-003	7	...........	-327.66
	869	1.74	4.80774E-001	-9.58104E-007	0.00000E+000	4.80000E-001	1.44367E-003	7	...........	-327.66
	870	1.742	4.70786E-001	-1.13013E-006	0.00000E+000	4.70000E-001	1.41609E-003	7	...........	-327.66
	871	1.744	4.60799E-001	-1.29027E-006	0.00000E+000	4.60000E-001	1.49712E-003	7	...........	-327.66
	872	1.746	4.50818E-001	-1.43889E-006	0.00000E+000	4.50000E-001	1.47126E-003	7	...........	-327.66
	873	1.748	4.40778E-001	-1.57865E-006	0.00000E+000	4.40000E-001	1.47643E-003	7	...........	-327.66
	874	1.75	4.30809E-001	-1.70760E-006	0.00000E+000	4.30000E-001	1.47126E-003	7	...........	-327.66
	875	1.752	4.20818E-001	-1.83096E-006	0.00000E+000	4.20000E-001	1.46953E-003	7	...........	-327.66
	876	1.754	4.10754E-001	-1.94648E-006	0.00000E+000	4.10000E-001	1.45402E-003	7	...........	-327.66
	877	1.756	4.00779E-001	-2.05534E-006	0.00000E+000	4.00000E-001	1.49884E-003	7	...........	-327.66
	878	1.758	3.90800E-001	-2.15898E-006	0.00000E+000	3.90000E-001	1.48850E-003	7	...........	-327.66
	879	1.76	3.80808E-001	-2.25564E-006	0.00000E+000	3.80000E-001	1.46436E-003	7	...........	-327.66
	880	1.762	3.70822E-001	-2.34769E-006	0.00000E+000	3.70000E-001	1.48505E-003	7	...........	-327.66
	881	1.764	3.60784E-001	-2.43622E-006	0.00000E+000	3.60000E-001	1.43678E-003	7	...........	-327.66
	882	1.766	3.50816E-001	-2.52073E-006	0.00000E+000	3.50000E-001	1.43850E-003	7	...........	-327.66
	883	1.768	3.40812E-001	-2.60012E-006	0.00000E+000	3.40000E-001	1.42815E-003	7	...........	-327.66
	884	1.77	3.30826E-001	-2.67605E-006	0.00000E+000	3.30000E-001	1.44540E-003	7	...........	-327.66
	885	1.772	3.20806E-001	-2.74988E-006	0.00000E+000	3.20000E-001	1.46091E-003	7	...........	-327.66
	886	1.774	3.10794E-001	-2.82050E-006	0.00000E+000	3.10000E-001	1.43505E-003	7	...........	-327.66
	887	1.776	3.00820E-001	-2.88837E-006	0.00000E+000	3.00000E-001	1.39712E-003	7	...........	-327.66
	888	1.778	2.90814E-001	-2.95284E-006	0.00000E+000	2.90000E-001	1.36264E-003	7	...........	-327.66
	889	1.78	2.80782E-001	-3.01607E-006	0.00000E+000	2.80000E-001	1.39367E-003	7	...........	-327.66
	890	1.782	2.70839E-001	-3.07605E-006	0.00000E+000	2.70000E-001	1.44540E-003	7	...........	-327.66
	891	1.784	2.60802E-001	-3.13483E-006	0.00000E+000	2.60000E-001	1.39022E-003	7	...........	-327.66
	892	1.786	2.50806E-001	-3.19074E-006	0.00000E+000	2.50000E-001	1.39022E-003	7	...........	-327.66
	893	1.788	2.40820E-001	-3.24597E-006	0.00000E+000	2.40000E-001	1.40057E-003	7	...........	-327.66
	894	1.79	2.30796E-001	-3.29994E-006	0.00000E+000	2.30000E-001	1.38678E-003	7	...........	-327.66
	895	1.792	2.20816E-001	-3.35209E-006	0.00000E+000	2.20000E-001	1.45919E-003	7	...........	-327.66
	896	1.794	2.10802E-001	-3.40242E-006	0.00000E+000	2.10000E-001	1.38678E-003	7	...........	-327.66
	897	1.796	2.00826E-001	-3.45165E-006	0.00000E+000	2.00000E-001	1.44367E-003	7	...........	-327.66
	898	1.798	1.90869E-001	-3.49893E-006	0.00000E+000	1.90000E-001	1.41091E-003	7	...........	-327.66
	899	1.8	1.80830E-001	-3.54641E-006	0.00000E+000	1.80000E-001	1.40057E-003	7	...........	-327.66
	900	1.802	1.70913E-001	-3.59177E-006	0.00000E+000	1.70000E-001	1.45229E-003	7	...........	-327.66