File: Test_Data_Files/20250509_IF0011_IIA42_PBSair_E03_E_CV50000_PEDOT.DTA
EXPLAIN
TAG	CV
TITLE	LABEL	CV50000	Test Identifier
DATE	LABEL	5/9/2025	Date
TIME	LABEL	14:46:40	Time
NOTES	NOTES	1	Notes...

PSTAT	PSTAT	REF600P-43058	Potentiostat
VINIT	POTEN	0.00000E+000	T	Initial E (V)
VLIMIT1	POTEN	-9.00000E-001	F	Scan Limit 1 (V)
VLIMIT2	POTEN	6.00000E-001	F	Scan Limit 2 (V)
VFINAL	POTEN	0.00000E+000	T	Final E (V)
SCANRATE	QUANT	4.99999E+004	Scan Rate (mV/s)
STEPSIZE	QUANT	1.00000E+001	Step Size (mV)
CYCLES	IQUANT	3	Cycles (#)
IMODE	SELECTOR	1	I/E Range Mode
IRANGE	QUANT	1.00000E-002	Max Current (mA)
AREA	QUANT	1.00000E+000	Sample Area (cm^2)
EQDELAY	QUANT	5.00000E+000	Equil. Time (s)
IRCOMP	SELECTOR	0	IRComp
PFCOR	QUANT	5.00000E+001	PF Corr. (ohm)
SAMPLINGMODE	SELECTOR	2	Sampling Mode
EOC	QUANT	0.1704582	Open Circuit (V)
ELECTRODETYPE	SELECTOR	0	Electrode Type
STRIPPING	TOGGLE	F	Used for Stripping
SEQUENCER	TOGGLE	TRUE	Run as Sequence
PSTATMODEL	IQUANT	7	Pstat Model
PSTATSECTION	LABEL	REF600P-43058	Pstat Section
PSTATSERIALNO	LABEL	43058	Pstat Serial Number
CTRLMODE	IQUANT	1	Control Mode
ELECTROMETER	IQUANT	0	RE=0 or CS=1
IESTAB	IQUANT	2	I/E Stability
CASPEED	IQUANT	4	Control Amp Speed
CONVENTION	IQUANT	1	Current Convention
ICHRANGE	IQUANT	2	Ich Range
ICHRANGEMODE	TOGGLE	F	Ich Auto Range
ICHOFFSETENABLE	TOGGLE	F	Ich Offset Enable
ICHOFFSET	QUANT	0	Ich Offset (V)
ICHFILTER	IQUANT	1	Ich Filter
VCHRANGE	IQUANT	2	Vch Range
VCHRANGEMODE	TOGGLE	F	Vch Auto Range
VCHOFFSETENABLE	TOGGLE	F	Vch Offset Enable
VCHOFFSET	QUANT	0	Vch Offset (V)
VCHFILTER	IQUANT	1	Vch Filter
ACHRANGE	IQUANT	2	Ach Range
ACHOFFSETENABLE	TOGGLE	F	Ach Offset Enable
ACHOFFSET	QUANT	0	Ach Offset (V)
ACHFILTER	IQUANT	1	Ach Filter
IERANGELOWERLIMIT	IQUANT	1	I/E Range Lower Limit
IERANGEMODE	TOGGLE	F	I/E AutoRange
IERANGE	IQUANT	7	I/E Range
POSFEEDENABLE	TOGGLE	F	Positive Feedback IR Comp
POSFEEDRESISTANCE	QUANT	0	Positive Feedback Resistance (ohm)
ACHSELECT	IQUANT	4	Ach Select
SENSECABLEID	IQUANT	7	Sense Cable ID
PWRCABLEID	IQUANT	7	Power Cable ID
DCCALDATE	LABEL	5/8/2025	DC Calibration Date
ACCALDATE	LABEL	5/8/2025	AC Calibration Date
THERMOSELECT	IQUANT	1	Thermo Select
FRAMEWORKVERSION	LABEL	7.10.4	Framework Version
INSTRUMENTVERSION	LABEL	5.01	Instrument Version
COMMVERSION	LABEL	5.10	Communications Version
CPUPLDVERSION	LABEL	6.00	CPU PLD Version
CTRLPLDVERSION	LABEL	3.21	CTRL PLD Version
PSTATPLDVERSION	LABEL	0.00	PSTAT PLD Version
CURVE1	TABLE
	Pt	T	Vf	Im	Vu	Sig	Ach	IERange	Over	Temp
	#	s	V vs. Ref.	A	V	V	V	#	bits	deg C
	0	0.0002	1.70437E-001	8.15501E-009	0.00000E+000	1.70450E-001	1.06522E-003	7	...........	-327.66
	3	0.0008	1.40587E-001	-3.23154E-006	0.00000E+000	1.40450E-001	9.90224E-004	7	...........	-327.66
	6	0.0014	1.10562E-001	-5.32557E-006	0.00000E+000	1.10450E-001	1.06522E-003	7	...........	-327.66
	9	0.002	8.05873E-002	-6.94129E-006	0.00000E+000	8.04500E-002	1.01522E-003	7	...........	-327.66
	12	0.0026	5.05123E-002	-8.31298E-006	0.00000E+000	5.04500E-002	9.90224E-004	7	...........	-327.66
	15	0.0032	2.06373E-002	-9.53640E-006	0.00000E+000	2.04500E-002	1.11522E-003	7	...........	-327.66
	18	0.0038	-9.55019E-003	-1.06665E-005	0.00000E+000	-9.55001E-003	9.65224E-004	7	...........	-327.66
	21	0.0044	-3.93627E-002	-1.17369E-005	0.00000E+000	-3.95500E-002	1.14022E-003	7	...........	-327.66
	24	0.005	-6.93502E-002	-1.27718E-005	0.00000E+000	-6.95500E-002	1.11522E-003	7	...........	-327.66
	27	0.0056	-9.94127E-002	-1.37720E-005	0.00000E+000	-9.95500E-002	1.11522E-003	7	...........	-327.66
	30	0.0062	-1.29488E-001	-1.47546E-005	0.00000E+000	-1.29550E-001	1.04022E-003	7	...........	-327.66
	33	0.0068	-1.59338E-001	-1.57225E-005	0.00000E+000	-1.59550E-001	1.14022E-003	7	...........	-327.66
	36	0.0074	-1.89288E-001	-1.66844E-005	0.00000E+000	-1.89550E-001	1.01522E-003	7	...........	-327.66
	39	0.008	-2.19238E-001	-1.76408E-005	0.00000E+000	-2.19550E-001	8.90224E-004	7	...........	-327.66
	42	0.0086	-2.49338E-001	-1.85991E-005	0.00000E+000	-2.49550E-001	1.09022E-003	7	...........	-327.66
	45	0.0092	-2.79300E-001	-1.95573E-005	0.00000E+000	-2.79550E-001	1.11522E-003	7	...........	-327.66
	48	0.0098	-3.09363E-001	-2.05191E-005	0.00000E+000	-3.09550E-001	1.24022E-003	7	...........	-327.66
	51	0.0104	-3.39288E-001	-2.14735E-005	0.00000E+000	-3.39550E-001	1.16522E-003	7	...........	-327.66
	54	0.011	-3.69313E-001	-2.24314E-005	0.00000E+000	-3.69550E-001	1.06522E-003	7	...........	-327.66
	57	0.0116	-3.99300E-001	-2.33883E-005	0.00000E+000	-3.99550E-001	1.11522E-003	7	...........	-327.66
	60	0.0122	-4.29363E-001	-2.43479E-005	0.00000E+000	-4.29550E-001	1.09022E-003	7	...........	-327.66
	63	0.0128	-4.59313E-001	-2.53003E-005	0.00000E+000	-4.59550E-001	1.06522E-003	7	...........	-327.66
	66	0.0134	-4.89338E-001	-2.62497E-005	0.00000E+000	-4.89550E-001	1.06522E-003	7	...........	-327.66
	69	0.014	-5.19250E-001	-2.71856E-005	0.00000E+000	-5.19550E-001	9.90224E-004	7	...........	-327.66
	72	0.0146	-5.49300E-001	-2.81134E-005	0.00000E+000	-5.49550E-001	1.11522E-003	7	...........	-327.66
	75	0.0152	-5.79250E-001	-2.90226E-005	0.00000E+000	-5.79550E-001	1.16522E-003	7	...........	-327.66
	78	0.0158	-6.09275E-001	-2.99107E-005	0.00000E+000	-6.09550E-001	1.16522E-003	7	...........	-327.66
	81	0.0164	-6.39250E-001	-3.07750E-005	0.00000E+000	-6.39550E-001	9.65224E-004	7	...........	-327.66
	84	0.017	-6.69263E-001	-3.15977E-005	0.00000E+000	-6.69550E-001	1.16522E-003	7	...........	-327.66
	87	0.0176	-6.99263E-001	-3.23818E-005	0.00000E+000	-6.99550E-001	1.24022E-003	7	...........	-327.66
	90	0.0182	-7.29088E-001	-3.31141E-005	0.00000E+000	-7.29550E-001	1.11522E-003	7	...........	-327.66
	93	0.0188	-7.59163E-001	-3.37767E-005	0.00000E+000	-7.59550E-001	1.14022E-003	7	...........	-327.66
	96	0.0194	-7.89275E-001	-3.43470E-005	0.00000E+000	-7.89550E-001	1.14022E-003	7	...........	-327.66
	99	0.02	-8.19300E-001	-3.48101E-005	0.00000E+000	-8.19550E-001	1.01522E-003	7	...........	-327.66
	102	0.0206	-8.49175E-001	-3.51304E-005	0.00000E+000	-8.49550E-001	1.14022E-003	7	...........	-327.66
	105	0.0212	-8.79238E-001	-3.52792E-005	0.00000E+000	-8.79550E-001	1.09022E-003	7	...........	-327.66
	108	0.0218	-8.89188E-001	-3.31209E-005	0.00000E+000	-8.89550E-001	9.40224E-004	7	...........	-327.66
	111	0.0224	-8.59250E-001	-2.78844E-005	0.00000E+000	-8.59550E-001	1.24022E-003	7	...........	-327.66
	114	0.023	-8.29213E-001	-2.40444E-005	0.00000E+000	-8.29550E-001	1.16522E-003	7	...........	-327.66
	117	0.0236	-7.99263E-001	-2.07544E-005	0.00000E+000	-7.99550E-001	9.90224E-004	7	...........	-327.66
	120	0.0242	-7.69288E-001	-1.77598E-005	0.00000E+000	-7.69550E-001	1.06522E-003	7	...........	-327.66
	123	0.0248	-7.39313E-001	-1.49561E-005	0.00000E+000	-7.39550E-001	1.14022E-003	7	...........	-327.66
	126	0.0254	-7.09375E-001	-1.22908E-005	0.00000E+000	-7.09550E-001	1.24022E-003	7	...........	-327.66
	129	0.026	-6.79238E-001	-9.73667E-006	0.00000E+000	-6.79550E-001	1.04022E-003	7	...........	-327.66
	132	0.0266	-6.49225E-001	-7.28734E-006	0.00000E+000	-6.49550E-001	1.06522E-003	7	...........	-327.66
	135	0.0272	-6.19313E-001	-4.93627E-006	0.00000E+000	-6.19550E-001	1.14022E-003	7	...........	-327.66
	138	0.0278	-5.89350E-001	-2.67846E-006	0.00000E+000	-5.89550E-001	1.19022E-003	7	...........	-327.66
	141	0.0284	-5.59263E-001	-5.14416E-007	0.00000E+000	-5.59550E-001	1.01522E-003	7	...........	-327.66
	144	0.029	-5.29475E-001	1.56362E-006	0.00000E+000	-5.29550E-001	1.04022E-003	7	...........	-327.66
	147	0.0296	-4.99413E-001	3.55164E-006	0.00000E+000	-4.99550E-001	1.06522E-003	7	...........	-327.66
	150	0.0302	-4.69363E-001	5.45865E-006	0.00000E+000	-4.69550E-001	1.09022E-003	7	...........	-327.66
	153	0.0308	-4.39288E-001	7.28890E-006	0.00000E+000	-4.39550E-001	1.24022E-003	7	...........	-327.66
	156	0.0314	-4.09513E-001	9.03488E-006	0.00000E+000	-4.09550E-001	1.06522E-003	7	...........	-327.66
	159	0.032	-3.79525E-001	1.07056E-005	0.00000E+000	-3.79550E-001	1.06522E-003	7	...........	-327.66
	162	0.0326	-3.49450E-001	1.22993E-005	0.00000E+000	-3.49550E-001	1.14022E-003	7	...........	-327.66
	165	0.0332	-3.19413E-001	1.38165E-005	0.00000E+000	-3.19550E-001	1.21522E-003	7	...........	-327.66
	168	0.0338	-2.89563E-001	1.52537E-005	0.00000E+000	-2.89550E-001	1.09022E-003	7	...........	-327.66
	171	0.0344	-2.59488E-001	1.66099E-005	0.00000E+000	-2.59550E-001	1.09022E-003	7	...........	-327.66
	174	0.035	-2.29650E-001	1.78781E-005	0.00000E+000	-2.29550E-001	1.11522E-003	7	...........	-327.66
	177	0.0356	-1.99613E-001	1.90620E-005	0.00000E+000	-1.99550E-001	1.16522E-003	7	...........	-327.66
	180	0.0362	-1.69638E-001	2.01602E-005	0.00000E+000	-1.69550E-001	1.06522E-003	7	...........	-327.66
	183	0.0368	-1.39425E-001	2.11738E-005	0.00000E+000	-1.39550E-001	1.04022E-003	7	...........	-327.66
	186	0.0374	-1.09625E-001	2.21022E-005	0.00000E+000	-1.09550E-001	1.21522E-003	7	...........	-327.66
	189	0.038	-7.95752E-002	2.29523E-005	0.00000E+000	-7.95500E-002	1.09022E-003	7	...........	-327.66
	192	0.0386	-4.96377E-002	2.37259E-005	0.00000E+000	-4.95500E-002	1.14022E-003	7	...........	-327.66
	195	0.0392	-1.96127E-002	2.44280E-005	0.00000E+000	-1.95500E-002	1.14022E-003	7	...........	-327.66
	198	0.0398	1.04498E-002	2.50728E-005	0.00000E+000	1.04500E-002	1.16522E-003	7	...........	-327.66
	201	0.0404	4.06248E-002	2.56531E-005	0.00000E+000	4.04500E-002	1.04022E-003	7	...........	-327.66
	204	0.041	7.03748E-002	2.61692E-005	0.00000E+000	7.04500E-002	1.11522E-003	7	...........	-327.66
	207	0.0416	1.00375E-001	2.66243E-005	0.00000E+000	1.00450E-001	1.14022E-003	7	...........	-327.66
	210	0.0422	1.30412E-001	2.70136E-005	0.00000E+000	1.30450E-001	1.11522E-003	7	...........	-327.66
	213	0.0428	1.60425E-001	2.73399E-005	0.00000E+000	1.60450E-001	1.14022E-003	7	...........	-327.66
	216	0.0434	1.90450E-001	2.76047E-005	0.00000E+000	1.90450E-001	1.21522E-003	7	...........	-327.66
	219	0.044	2.20487E-001	2.78067E-005	0.00000E+000	2.20450E-001	1.06522E-003	7	...........	-327.66
	222	0.0446	2.50437E-001	2.79375E-005	0.00000E+000	2.50450E-001	1.21522E-003	7	...........	-327.66
	225	0.0452	2.80437E-001	2.79932E-005	0.00000E+000	2.80450E-001	1.09022E-003	7	...........	-327.66
	228	0.0458	3.10312E-001	2.79947E-005	0.00000E+000	3.10450E-001	1.16522E-003	7	...........	-327.66
	231	0.0464	3.40350E-001	2.79617E-005	0.00000E+000	3.40450E-001	1.06522E-003	7	...........	-327.66
	234	0.047	3.70425E-001	2.78942E-005	0.00000E+000	3.70450E-001	1.11522E-003	7	...........	-327.66
	237	0.0476	4.00487E-001	2.78167E-005	0.00000E+000	4.00450E-001	9.90224E-004	7	...........	-327.66
	240	0.0482	4.30412E-001	2.77312E-005	0.00000E+000	4.30450E-001	1.19022E-003	7	...........	-327.66
	243	0.0488	4.60437E-001	2.76494E-005	0.00000E+000	4.60450E-001	1.21522E-003	7	...........	-327.66
	246	0.0494	4.90337E-001	2.75777E-005	0.00000E+000	4.90450E-001	1.06522E-003	7	...........	-327.66
	249	0.05	5.20350E-001	2.75177E-005	0.00000E+000	5.20450E-001	1.19022E-003	7	...........	-327.66
	252	0.0506	5.50387E-001	2.74854E-005	0.00000E+000	5.50450E-001	1.06522E-003	7	...........	-327.66
	255	0.0512	5.80412E-001	2.74714E-005	0.00000E+000	5.80450E-001	1.19022E-003	7	...........	-327.66
	257	0.0516	6.00375E-001	2.74839E-005	0.00000E+000	6.00450E-001	1.04022E-003	7	...........	-327.66
CURVE2	TABLE
	Pt	T	Vf	Im	Vu	Sig	Ach	IERange	Over	Temp
	#	s	V vs. Ref.	A	V	V	V	#	bits	deg C
	258	0.0518	5.90137E-001	2.49851E-005	0.00000E+000	5.90000E-001	1.04022E-003	7	...........	-327.66
	262	0.0526	5.50000E-001	1.79994E-005	0.00000E+000	5.50000E-001	1.09022E-003	7	...........	-327.66
	266	0.0534	5.09987E-001	1.35745E-005	0.00000E+000	5.10000E-001	9.65224E-004	7	...........	-327.66
	270	0.0542	4.69962E-001	1.01315E-005	0.00000E+000	4.70000E-001	1.16522E-003	7	...........	-327.66
	274	0.055	4.29987E-001	7.23064E-006	0.00000E+000	4.30000E-001	1.06522E-003	7	...........	-327.66
	278	0.0558	3.89987E-001	4.69979E-006	0.00000E+000	3.90000E-001	1.04022E-003	7	...........	-327.66
	282	0.0566	3.50087E-001	2.42448E-006	0.00000E+000	3.50000E-001	1.24022E-003	7	...........	-327.66
	286	0.0574	3.10112E-001	3.45951E-007	0.00000E+000	3.10000E-001	1.06522E-003	7	...........	-327.66
	290	0.0582	2.70112E-001	-1.57906E-006	0.00000E+000	2.70000E-001	1.11522E-003	7	...........	-327.66
	294	0.059	2.30075E-001	-3.36906E-006	0.00000E+000	2.30000E-001	1.19022E-003	7	...........	-327.66
	298	0.0598	1.90200E-001	-5.07254E-006	0.00000E+000	1.90000E-001	1.19022E-003	7	...........	-327.66
	302	0.0606	1.50162E-001	-6.67976E-006	0.00000E+000	1.50000E-001	1.11522E-003	7	...........	-327.66
	306	0.0614	1.10050E-001	-8.22597E-006	0.00000E+000	1.10000E-001	1.16522E-003	7	...........	-327.66
	310	0.0622	7.01498E-002	-9.70592E-006	0.00000E+000	7.00000E-002	1.09022E-003	7	...........	-327.66
	314	0.063	3.01623E-002	-1.11386E-005	0.00000E+000	3.00000E-002	1.11522E-003	7	...........	-327.66
	318	0.0638	-9.70019E-003	-1.25243E-005	0.00000E+000	-1.00000E-002	1.09022E-003	7	...........	-327.66
	322	0.0646	-4.98252E-002	-1.38625E-005	0.00000E+000	-5.00000E-002	1.21522E-003	7	...........	-327.66
	326	0.0654	-8.98752E-002	-1.51642E-005	0.00000E+000	-9.00000E-002	1.09022E-003	7	...........	-327.66
	330	0.0662	-1.29838E-001	-1.64403E-005	0.00000E+000	-1.30000E-001	1.04022E-003	7	...........	-327.66
	334	0.067	-1.69850E-001	-1.76910E-005	0.00000E+000	-1.70000E-001	1.24022E-003	7	...........	-327.66
	338	0.0678	-2.09700E-001	-1.89309E-005	0.00000E+000	-2.10000E-001	1.11522E-003	7	...........	-327.66
	342	0.0686	-2.49750E-001	-2.01638E-005	0.00000E+000	-2.50000E-001	1.14022E-003	7	...........	-327.66
	346	0.0694	-2.89813E-001	-2.13953E-005	0.00000E+000	-2.90000E-001	1.16522E-003	7	...........	-327.66
	350	0.0702	-3.29788E-001	-2.26149E-005	0.00000E+000	-3.30000E-001	1.16522E-003	7	...........	-327.66
	354	0.071	-3.69763E-001	-2.38251E-005	0.00000E+000	-3.70000E-001	1.19022E-003	7	...........	-327.66
	358	0.0718	-4.09750E-001	-2.50278E-005	0.00000E+000	-4.10000E-001	1.19022E-003	7	...........	-327.66
	362	0.0726	-4.49700E-001	-2.62057E-005	0.00000E+000	-4.50000E-001	1.04022E-003	7	...........	-327.66
	366	0.0734	-4.89713E-001	-2.73656E-005	0.00000E+000	-4.90000E-001	1.04022E-003	7	...........	-327.66
	370	0.0742	-5.29725E-001	-2.84900E-005	0.00000E+000	-5.30000E-001	1.21522E-003	7	...........	-327.66
	374	0.075	-5.69713E-001	-2.95889E-005	0.00000E+000	-5.70000E-001	1.11522E-003	7	...........	-327.66
	378	0.0758	-6.09763E-001	-3.06355E-005	0.00000E+000	-6.10000E-001	1.16522E-003	7	...........	-327.66
	382	0.0766	-6.49788E-001	-3.16282E-005	0.00000E+000	-6.50000E-001	1.19022E-003	7	...........	-327.66
	386	0.0774	-6.89713E-001	-3.25508E-005	0.00000E+000	-6.90000E-001	1.19022E-003	7	...........	-327.66
	390	0.0782	-7.29650E-001	-3.33934E-005	0.00000E+000	-7.30000E-001	1.14022E-003	7	...........	-327.66
	394	0.079	-7.69688E-001	-3.41257E-005	0.00000E+000	-7.70000E-001	1.16522E-003	7	...........	-327.66
	398	0.0798	-8.09650E-001	-3.47216E-005	0.00000E+000	-8.10000E-001	1.14022E-003	7	...........	-327.66
	402	0.0806	-8.49650E-001	-3.51404E-005	0.00000E+000	-8.50000E-001	9.40224E-004	7	...........	-327.66
	406	0.0814	-8.89713E-001	-3.53342E-005	0.00000E+000	-8.90000E-001	1.11522E-003	7	...........	-327.66
	410	0.0822	-8.69650E-001	-2.91683E-005	0.00000E+000	-8.70000E-001	1.16522E-003	7	...........	-327.66
	414	0.083	-8.29638E-001	-2.32603E-005	0.00000E+000	-8.30000E-001	1.16522E-003	7	...........	-327.66
	418	0.0838	-7.89675E-001	-1.84704E-005	0.00000E+000	-7.90000E-001	1.06522E-003	7	...........	-327.66
	422	0.0846	-7.49713E-001	-1.42363E-005	0.00000E+000	-7.50000E-001	1.11522E-003	7	...........	-327.66
	426	0.0854	-7.09613E-001	-1.03808E-005	0.00000E+000	-7.10000E-001	1.16522E-003	7	...........	-327.66
	430	0.0862	-6.69713E-001	-6.83078E-006	0.00000E+000	-6.70000E-001	1.01522E-003	7	...........	-327.66
	434	0.087	-6.29688E-001	-3.55833E-006	0.00000E+000	-6.30000E-001	1.29022E-003	7	...........	-327.66
	438	0.0878	-5.89738E-001	-5.28418E-007	0.00000E+000	-5.90000E-001	1.16522E-003	7	...........	-327.66
	442	0.0886	-5.49838E-001	2.29722E-006	0.00000E+000	-5.50000E-001	9.15224E-004	7	...........	-327.66
	446	0.0894	-5.09825E-001	4.95133E-006	0.00000E+000	-5.10000E-001	1.11522E-003	7	...........	-327.66
	450	0.0902	-4.69763E-001	7.46042E-006	0.00000E+000	-4.70000E-001	1.19022E-003	7	...........	-327.66
	454	0.091	-4.30050E-001	9.85125E-006	0.00000E+000	-4.30000E-001	9.90224E-004	7	...........	-327.66
	458	0.0918	-3.89850E-001	1.21243E-005	0.00000E+000	-3.90000E-001	1.16522E-003	7	...........	-327.66
	462	0.0926	-3.49925E-001	1.42818E-005	0.00000E+000	-3.50000E-001	1.06522E-003	7	...........	-327.66
	466	0.0934	-3.09913E-001	1.63044E-005	0.00000E+000	-3.10000E-001	1.14022E-003	7	...........	-327.66
	470	0.0942	-2.70025E-001	1.81856E-005	0.00000E+000	-2.70000E-001	1.11522E-003	7	...........	-327.66
	474	0.095	-2.30050E-001	1.99036E-005	0.00000E+000	-2.30000E-001	1.14022E-003	7	...........	-327.66
	478	0.0958	-1.89850E-001	2.14543E-005	0.00000E+000	-1.90000E-001	1.19022E-003	7	...........	-327.66
	482	0.0966	-1.50013E-001	2.28308E-005	0.00000E+000	-1.50000E-001	1.21522E-003	7	...........	-327.66
	486	0.0974	-1.09975E-001	2.40549E-005	0.00000E+000	-1.10000E-001	1.16522E-003	7	...........	-327.66
	490	0.0982	-6.99502E-002	2.51298E-005	0.00000E+000	-7.00000E-002	1.01522E-003	7	...........	-327.66
	494	0.099	-2.99377E-002	2.60805E-005	0.00000E+000	-3.00000E-002	1.11522E-003	7	...........	-327.66
[...]
	694	0.139	-7.69688E-001	-3.46108E-005	0.00000E+000	-7.70000E-001	1.19022E-003	7	...........	-327.66
	698	0.1398	-8.09638E-001	-3.51554E-005	0.00000E+000	-8.10000E-001	1.06522E-003	7	...........	-327.66
	702	0.1406	-8.49688E-001	-3.55362E-005	0.00000E+000	-8.50000E-001	1.24022E-003	7	...........	-327.66
	706	0.1414	-8.89663E-001	-3.56942E-005	0.00000E+000	-8.90000E-001	1.11522E-003	7	...........	-327.66
	710	0.1422	-8.69675E-001	-2.93986E-005	0.00000E+000	-8.70000E-001	1.21522E-003	7	...........	-327.66
	714	0.143	-8.29638E-001	-2.32900E-005	0.00000E+000	-8.30000E-001	1.21522E-003	7	...........	-327.66
	718	0.1438	-7.89663E-001	-1.83236E-005	0.00000E+000	-7.90000E-001	1.11522E-003	7	...........	-327.66
	722	0.1446	-7.49688E-001	-1.39570E-005	0.00000E+000	-7.50000E-001	1.04022E-003	7	...........	-327.66
	726	0.1454	-7.09763E-001	-1.00065E-005	0.00000E+000	-7.10000E-001	1.19022E-003	7	...........	-327.66
	730	0.1462	-6.69750E-001	-6.41022E-006	0.00000E+000	-6.70000E-001	1.06522E-003	7	...........	-327.66
	734	0.147	-6.29638E-001	-3.12102E-006	0.00000E+000	-6.30000E-001	1.04022E-003	7	...........	-327.66
	738	0.1478	-5.89738E-001	-9.61092E-008	0.00000E+000	-5.90000E-001	1.19022E-003	7	...........	-327.66
	742	0.1486	-5.49913E-001	2.71302E-006	0.00000E+000	-5.50000E-001	1.09022E-003	7	...........	-327.66
	746	0.1494	-5.09875E-001	5.35638E-006	0.00000E+000	-5.10000E-001	1.06522E-003	7	...........	-327.66
	750	0.1502	-4.69888E-001	7.86348E-006	0.00000E+000	-4.70000E-001	1.11522E-003	7	...........	-327.66
	754	0.151	-4.29925E-001	1.02673E-005	0.00000E+000	-4.30000E-001	1.11522E-003	7	...........	-327.66
	758	0.1518	-3.89888E-001	1.25711E-005	0.00000E+000	-3.90000E-001	9.90224E-004	7	...........	-327.66
	762	0.1526	-3.49950E-001	1.47534E-005	0.00000E+000	-3.50000E-001	1.04022E-003	7	...........	-327.66
	766	0.1534	-3.09988E-001	1.68092E-005	0.00000E+000	-3.10000E-001	1.14022E-003	7	...........	-327.66
	770	0.1542	-2.70013E-001	1.87142E-005	0.00000E+000	-2.70000E-001	1.19022E-003	7	...........	-327.66
	774	0.155	-2.29900E-001	2.04534E-005	0.00000E+000	-2.30000E-001	1.14022E-003	7	...........	-327.66
	778	0.1558	-1.89900E-001	2.20152E-005	0.00000E+000	-1.90000E-001	1.16522E-003	7	...........	-327.66
	782	0.1566	-1.50088E-001	2.33988E-005	0.00000E+000	-1.50000E-001	1.09022E-003	7	...........	-327.66
	786	0.1574	-1.10088E-001	2.46215E-005	0.00000E+000	-1.10000E-001	1.14022E-003	7	...........	-327.66
	790	0.1582	-7.01002E-002	2.56932E-005	0.00000E+000	-7.00000E-002	1.09022E-003	7	...........	-327.66
	794	0.159	-2.98627E-002	2.66523E-005	0.00000E+000	-3.00000E-002	1.06522E-003	7	...........	-327.66
	798	0.1598	9.93731E-003	2.75182E-005	0.00000E+000	9.99999E-003	1.19022E-003	7	...........	-327.66
	802	0.1606	5.00873E-002	2.83238E-005	0.00000E+000	5.00000E-002	1.16522E-003	7	...........	-327.66
	806	0.1614	9.01373E-002	2.89821E-005	0.00000E+000	9.00000E-002	1.04022E-003	7	...........	-327.66
	810	0.1622	1.29850E-001	2.94807E-005	0.00000E+000	1.30000E-001	1.19022E-003	7	...........	-327.66
	814	0.163	1.70112E-001	2.98427E-005	0.00000E+000	1.70000E-001	1.04022E-003	7	...........	-327.66
	818	0.1638	2.10025E-001	3.00575E-005	0.00000E+000	2.10000E-001	1.21522E-003	7	...........	-327.66
	822	0.1646	2.50012E-001	3.01433E-005	0.00000E+000	2.50000E-001	1.16522E-003	7	...........	-327.66
	826	0.1654	2.89962E-001	3.01223E-005	0.00000E+000	2.90000E-001	1.24022E-003	7	...........	-327.66
	830	0.1662	3.30012E-001	3.00462E-005	0.00000E+000	3.30000E-001	1.14022E-003	7	...........	-327.66
	834	0.167	3.69887E-001	2.99267E-005	0.00000E+000	3.70000E-001	1.06522E-003	7	...........	-327.66
	838	0.1678	4.09862E-001	2.97915E-005	0.00000E+000	4.10000E-001	1.01522E-003	7	...........	-327.66
	842	0.1686	4.50087E-001	2.96544E-005	0.00000E+000	4.50000E-001	1.19022E-003	7	...........	-327.66
	846	0.1694	4.89900E-001	2.95362E-005	0.00000E+000	4.90000E-001	1.06522E-003	7	...........	-327.66
	850	0.1702	5.29937E-001	2.94544E-005	0.00000E+000	5.30000E-001	1.06522E-003	7	...........	-327.66
	854	0.171	5.69975E-001	2.94257E-005	0.00000E+000	5.70000E-001	9.40224E-004	7	...........	-327.66
	857	0.1716	5.99925E-001	2.94449E-005	0.00000E+000	6.00000E-001	1.04022E-003	7	...........	-327.66
CURVE4	TABLE
	Pt	T	Vf	Im	Vu	Sig	Ach	IERange	Over	Temp
	#	s	V vs. Ref.	A	V	V	V	#	bits	deg C
	858	0.1718	5.90012E-001	2.69471E-005	0.00000E+000	5.90000E-001	1.06522E-003	7	...........	-327.66
	859	0.172	5.79937E-001	2.46318E-005	0.00000E+000	5.80000E-001	1.09022E-003	7	...........	-327.66
	860	0.1722	5.69975E-001	2.27162E-005	0.00000E+000	5.70000E-001	1.24022E-003	7	...........	-327.66
	861	0.1724	5.59937E-001	2.10615E-005	0.00000E+000	5.60000E-001	1.01522E-003	7	...........	-327.66
	862	0.1726	5.50012E-001	1.95903E-005	0.00000E+000	5.50000E-001	1.09022E-003	7	...........	-327.66
	863	0.1728	5.39937E-001	1.82584E-005	0.00000E+000	5.40000E-001	1.14022E-003	7	...........	-327.66
	864	0.173	5.29962E-001	1.70345E-005	0.00000E+000	5.30000E-001	1.16522E-003	7	...........	-327.66
	865	0.1732	5.19950E-001	1.58931E-005	0.00000E+000	5.20000E-001	1.19022E-003	7	...........	-327.66
	866	0.1734	5.10037E-001	1.48242E-005	0.00000E+000	5.10000E-001	1.16522E-003	7	...........	-327.66
	867	0.1736	4.99950E-001	1.38145E-005	0.00000E+000	5.00000E-001	1.14022E-003	7	...........	-327.66
	868	0.1738	4.90000E-001	1.28559E-005	0.00000E+000	4.90000E-001	1.14022E-003	7	...........	-327.66
	869	0.174	4.79962E-001	1.19370E-005	0.00000E+000	4.80000E-001	1.11522E-003	7	...........	-327.66
	870	0.1742	4.69937E-001	1.10629E-005	0.00000E+000	4.70000E-001	1.01522E-003	7	...........	-327.66
	871	0.1744	4.59937E-001	1.02200E-005	0.00000E+000	4.60000E-001	1.11522E-003	7	...........	-327.66
	872	0.1746	4.49925E-001	9.41069E-006	0.00000E+000	4.50000E-001	1.19022E-003	7	...........	-327.66
	873	0.1748	4.39937E-001	8.62508E-006	0.00000E+000	4.40000E-001	1.04022E-003	7	...........	-327.66
	874	0.175	4.30037E-001	7.86673E-006	0.00000E+000	4.30000E-001	1.06522E-003	7	...........	-327.66
	875	0.1752	4.19987E-001	7.13238E-006	0.00000E+000	4.20000E-001	1.21522E-003	7	...........	-327.66
	876	0.1754	4.09962E-001	6.42353E-006	0.00000E+000	4.10000E-001	1.16522E-003	7	...........	-327.66
	877	0.1756	3.99937E-001	5.72843E-006	0.00000E+000	4.00000E-001	1.11522E-003	7	...........	-327.66
	878	0.1758	3.89950E-001	5.05359E-006	0.00000E+000	3.90000E-001	1.19022E-003	7	...........	-327.66
	879	0.176	3.80137E-001	4.40025E-006	0.00000E+000	3.80000E-001	1.09022E-003	7	...........	-327.66
	880	0.1762	3.70037E-001	3.75892E-006	0.00000E+000	3.70000E-001	9.90224E-004	7	...........	-327.66
	881	0.1764	3.60012E-001	3.13158E-006	0.00000E+000	3.60000E-001	1.24022E-003	7	...........	-327.66
	882	0.1766	3.49975E-001	2.52275E-006	0.00000E+000	3.50000E-001	1.19022E-003	7	...........	-327.66
	883	0.1768	3.40037E-001	1.92692E-006	0.00000E+000	3.40000E-001	1.04022E-003	7	...........	-327.66
	884	0.177	3.30025E-001	1.34459E-006	0.00000E+000	3.30000E-001	1.11522E-003	7	...........	-327.66
	885	0.1772	3.20087E-001	7.73009E-007	0.00000E+000	3.20000E-001	1.04022E-003	7	...........	-327.66
	886	0.1774	3.10087E-001	2.18434E-007	0.00000E+000	3.10000E-001	1.09022E-003	7	...........	-327.66
	887	0.1776	2.99975E-001	-3.33141E-007	0.00000E+000	3.00000E-001	1.06522E-003	7	...........	-327.66
	888	0.1778	2.90150E-001	-8.68464E-007	0.00000E+000	2.90000E-001	9.65224E-004	7	...........	-327.66
	889	0.178	2.79987E-001	-1.39704E-006	0.00000E+000	2.80000E-001	1.11522E-003	7	...........	-327.66
	890	0.1782	2.69962E-001	-1.91661E-006	0.00000E+000	2.70000E-001	9.65224E-004	7	...........	-327.66
	891	0.1784	2.60037E-001	-2.42343E-006	0.00000E+000	2.60000E-001	1.11522E-003	7	...........	-327.66
	892	0.1786	2.50150E-001	-2.92224E-006	0.00000E+000	2.50000E-001	1.14022E-003	7	...........	-327.66
	893	0.1788	2.40025E-001	-3.41506E-006	0.00000E+000	2.40000E-001	9.90224E-004	7	...........	-327.66
	894	0.179	2.30062E-001	-3.89513E-006	0.00000E+000	2.30000E-001	1.06522E-003	7	...........	-327.66
	895	0.1792	2.20087E-001	-4.37794E-006	0.00000E+000	2.20000E-001	1.16522E-003	7	...........	-327.66
	896	0.1794	2.10150E-001	-4.84526E-006	0.00000E+000	2.10000E-001	1.29022E-003	7	...........	-327.66
	897	0.1796	2.00087E-001	-5.30832E-006	0.00000E+000	2.00000E-001	1.01522E-003	7	...........	-327.66
	898	0.1798	1.90025E-001	-5.76438E-006	0.00000E+000	1.90000E-001	1.19022E-003	7	...........	-327.66
	899	0.18	1.79987E-001	-6.21494E-006	0.00000E+000	1.80000E-001	1.06522E-003	7	...........	-327.66
	900	0.1802	1.70325E-001	-6.65875E-006	0.00000E+000	1.70000E-001	1.19022E-003	7	...........	-327.66